time_s,raw_eeg1,bandpass_eeg1,nlms_eeg1,wavelet_eeg1,winsor_eeg1,raw_eeg2,bandpass_eeg2,nlms_eeg2,wavelet_eeg2,winsor_eeg2,raw_eeg3,bandpass_eeg3,nlms_eeg3,wavelet_eeg3,winsor_eeg3
75.0154960155487,2.636629499999998,0.935068073236561,0.935068073236561,-1.5433551023841134,0.935068073236561,0.0,0.0,0.0,,0.0,-61.02955749999995,-49.05699157421398,-49.05699157421398,-23.073381772232114,-49.05699157421398
75.0154960155487,0.9349755000000073,-5.837084523657071,-5.837084523657071,-2.8502602897092792,-5.837084523657071,0.0,0.0,0.0,,0.0,13.031681500000047,26.485381934345916,26.485381934345916,24.516989749866006,26.485381934345916
75.0162718296051,-14.054543499999994,-6.374197957376017,-6.374197957376017,-3.419245566215384,-6.374197957376017,0.0,0.0,0.0,,0.0,55.47580650000003,44.91450751522267,44.91450751522267,42.29517746600189,44.91450751522267
75.0162718296051,2.0083265000000097,-3.039334677106404,-3.2458166425983364,-2.7424154778523957,-3.039334677106404,0.0,0.0,0.0,,0.0,-28.24559449999998,24.421039382971717,41.24352435691314,42.49877491541911,24.421039382971717
75.02983093261719,-1.6380755000000136,-1.815250743144781,-2.1722821915054866,-1.5376532633675586,-1.815250743144781,0.0,0.0,0.0,,0.0,-17.070773499999973,21.551327600319212,37.673568234953606,29.680993993685263,21.551327600319212
75.02983093261719,2.131743499999999,-4.7066076275266235,-4.969426570501227,-2.9401459687458553,-4.7066076275266235,0.0,0.0,0.0,,0.0,15.268141500000013,55.69222277204359,62.088369015829535,47.20116473313217,55.69222277204359
75.04563689231873,-15.251311500000014,-7.510033758628045,-7.653452068485784,-4.849298153236398,-7.510033758628045,0.0,0.0,0.0,,0.0,66.54217050000005,87.73234537709818,89.22864320683519,73.15207158597192,87.73234537709818
75.04563689231873,-6.443847500000004,-6.314251625432121,-6.432954397613762,-3.8292676172658546,-6.314251625432121,0.0,0.0,0.0,,0.0,70.31198950000004,81.04984060574624,86.04520209761952,70.85701176936733,81.04984060574624
75.04630088806152,2.5992305000000044,-3.53230017192682,-3.408281399173397,-1.917632118590288,-3.53230017192682,0.0,0.0,0.0,,0.0,-73.00845649999997,55.66137050128119,61.82570357485501,56.332616192544194,55.66137050128119
75.04630088806152,0.5647255000000087,-3.6854714398149344,-3.136922123734198,-2.5516328211357333,-3.6854714398149344,0.0,0.0,0.0,,0.0,12.36971950000003,51.9808250958526,50.14138319496618,56.872137717062174,51.9808250958526
75.06004095077515,-15.266271500000016,-5.818191292167065,-4.934317139097236,-4.057763168701341,-5.818191292167065,0.0,0.0,0.0,,0.0,56.874528500000054,64.91625838559659,53.461347201792805,60.88268714864568,64.91625838559659
75.06004095077515,-2.5655715000000043,-5.7415346179859705,-4.757049569488118,-4.234371343793283,-5.7415346179859705,0.0,0.0,0.0,,0.0,-37.131596499999944,58.838115799324505,45.69689590471736,48.471427075232455,58.838115799324505
75.07574701309204,-3.7511195000000157,-4.114473763568914,-3.1356549345169156,-5.033024997087074,-4.114473763568914,0.0,0.0,0.0,,0.0,-43.99805249999997,34.11685390747359,23.855270548305786,37.50233928670016,34.11685390747359
75.07574701309204,4.024132500000007,-6.077944596557634,-5.00276735397569,-7.172107693459251,-6.077944596557634,0.0,0.0,0.0,,0.0,-63.62878749999999,30.11879400236861,18.265026567027714,43.742903161796875,30.11879400236861
75.07649087905884,-26.927279499999997,-13.53925313981231,-12.197787049716341,-11.413049141563882,-13.53925313981231,0.0,0.0,0.0,,0.0,36.507033500000034,60.99614309586209,44.44060222147275,52.76769630980449,60.99614309586209
75.07649087905884,-22.387040499999998,-22.904170579867575,-21.09712890943491,-19.950577036293765,-22.904170579867575,0.0,0.0,0.0,,0.0,-11.965809499999978,84.65911304119226,68.6455219729413,62.04243516594919,84.65911304119226
75.08996605873108,-20.158060500000005,-28.798663454183654,-26.081887955532917,-25.67217109550732,-28.798663454183654,0.0,0.0,0.0,,0.0,-106.50674049999998,45.661486894502325,34.82193250610287,41.436466967467965,45.661486894502325
75.08996605873108,-22.274843500000003,-25.86343901100368,-21.600176320436915,-20.841143312829978,-25.86343901100368,0.0,0.0,0.0,,0.0,-71.69949149999997,-64.30581571864077,-74.86432296234022,-58.69896752449382,-64.30581571864077
75.1056559085846,-28.030549500000006,-11.342389334335598,-5.821243838225982,-8.92211785605712,-11.342389334335598,0.0,0.0,0.0,,0.0,-313.5307725,-192.79250842098128,-211.98053117413065,-181.77145104933038,-192.79250842098128
75.1056559085846,15.576683500000001,8.757900840956836,13.502341015848703,6.66146796345028,8.757900840956836,0.0,0.0,0.0,,0.0,-380.84523149999995,-274.98644472447853,-310.9172413137396,-242.07067721175872,-205.61623558834194
75.10624694824219,29.204879500000004,21.59260980617105,22.62604046448822,18.884154488556213,21.59260980617105,0.0,0.0,0.0,,0.0,-418.3414685,-298.4796347106149,-357.1454216085686,-266.97838804903995,-205.61623558834194
75.10624694824219,19.196906499999983,21.024354291296152,16.467757953183956,17.634538892221734,21.024354291296152,0.0,0.0,0.0,,0.0,-409.6275025,-309.1234869340363,-383.11522717023297,-304.499323965643,-205.61623558834194
75.11989092826843,3.5042865000000063,13.735127057114527,4.234050935041742,9.48885239302934,13.735127057114527,0.0,0.0,0.0,,0.0,-400.31141149999996,-345.19132066138775,-405.7607367365,-341.059894500525,-205.61623558834194
75.11989092826843,11.833043500000002,8.12469380639958,-4.682580809536319,6.137233827798107,8.12469380639958,0.0,0.0,0.0,,0.0,-533.1601375,-386.32496733488296,-405.7762758274626,-361.271721528457,-205.61623558834194
75.13554406166077,8.4933135,4.261493898517559,-11.157098039225717,4.758169062389566,4.261493898517559,0.0,0.0,0.0,,0.0,-549.5895174999999,-390.9018068788396,-369.9155909353467,-370.3240432021319,-205.61623558834194
75.13554406166077,2.2663794999999993,-0.9644170720157318,-19.084376984648145,-0.1409594508057278,-0.9644170720157318,0.0,0.0,0.0,,0.0,-462.3339125,-365.9590656529659,-326.05765675769277,-368.7545045273906,-205.61623558834194
75.13635897636414,-19.5895955,-5.843142481098928,-26.261054533852587,-5.112458713402402,-5.843142481098928,0.0,0.0,0.0,,0.0,-413.3262635,-358.377005662749,-315.35130340321365,-362.92227293011206,-205.61623558834194
75.13635897636414,-0.1869944999999973,-6.65917248772564,-28.295899588396704,-5.909435484137307,-6.65917248772564,0.0,0.0,0.0,,0.0,-554.9188755,-379.6432379224853,-335.92366801847663,-367.8048940194845,-205.61623558834194
75.14987683296204,-1.9447475000000054,-4.25838232631107,-26.286548624606077,-4.671157598671979,-4.25838232631107,0.0,0.0,0.0,,0.0,-545.2699335,-388.88073526815566,-346.3048011998777,-371.42104946014103,-205.61623558834194
75.14987683296204,-4.192427500000008,-3.023687336924963,-25.25267958524596,-4.229053549085309,-3.023687336924963,0.0,0.0,0.0,,0.0,-480.8015385,-362.4908837543491,-328.57166724620976,-351.1601961096753,-205.61623558834194
75.16556692123413,-10.224886499999997,-4.9551487807967165,-27.170345539599875,-4.319953439431158,-4.9551487807967165,0.0,0.0,0.0,,0.0,-401.45582049999996,-333.05049887473194,-312.1431818506955,-327.25318569167,-205.61623558834194
75.16556692123413,-5.557491499999998,-7.507351498278817,-28.92972763976656,-4.786196682336587,-7.507351498278817,0.0,0.0,0.0,,0.0,-519.4683635,-336.1317787580541,-323.15337942183396,-329.0493309542791,-205.61623558834194
75.16624188423157,-6.817837499999996,-7.105763247884422,-26.828164527716392,-5.043625549170579,-7.105763247884422,0.0,0.0,0.0,,0.0,-499.2392444999999,-356.96900635664707,-345.48522243784544,-343.333511150006,-205.61623558834194
75.16624188423157,-3.1676945000000103,-3.6631048555750874,-21.409496229085214,-3.832583709288638,-3.6631048555750874,0.0,0.0,0.0,,0.0,-512.5719885,-359.5051906478242,-353.7174699860993,-350.4229917949273,-205.61623558834194
75.17993783950806,-3.534205500000013,-0.7112886910232225,-16.872192450528484,-2.288085546719559,-0.7112886910232225,0.0,0.0,0.0,,0.0,-426.8048625,-342.6313383275637,-356.34662115905024,-352.1233806141603,-205.61623558834194
75.17993783950806,-4.551457499999998,-1.0357932505594736,-16.021201044162446,-2.1243877916703284,-1.0357932505594736,0.0,0.0,0.0,,0.0,-499.14948749999996,-335.03982298473386,-375.5684307626631,-351.22334589274254,-205.61623558834194
75.19559597969055,0.8265184999999917,-3.5306883338210158,-17.342766582869046,-2.632419391461239,-3.5306883338210158,0.0,0.0,0.0,,0.0,-514.7635695,-347.09656265955806,-399.3411474711985,-349.1337867003951,-205.61623558834194
75.19559597969055,-2.718906500000003,-5.030967669508086,-17.486148171179853,-2.755962911438043,-5.030967669508086,0.0,0.0,0.0,,0.0,-514.8458475,-359.5852341536764,-393.7447783887322,-347.7709414459395,-205.61623558834194
75.19624400138855,-15.378468499999997,-4.19551008896578,-15.318931513959033,-2.512051943138444,-4.19551008896578,0.0,0.0,0.0,,0.0,-441.8579595,-357.24511348337046,-359.7588513432908,-345.46336781977413,-205.61623558834194
75.19624400138855,1.581978499999991,-2.5470824393729066,-12.62276513380013,-1.9697026944344358,-2.5470824393729066,0.0,0.0,0.0,,0.0,-530.3140735,-346.3493565021499,-327.4353717466821,-344.46886720785216,-205.61623558834194
75.20988893508911,1.7876724999999851,-1.7472476718011236,-11.07198834954152,-1.2360756927469512,-1.7472476718011236,0.0,0.0,0.0,,0.0,-504.93885249999994,-337.4466119072111,-310.5577225488446,-339.57766642868603,-205.61623558834194
75.20988893508911,-3.852096500000016,-1.1635562094839085,-9.84446956381611,-0.5300937692777099,-1.1635562094839085,0.0,0.0,0.0,,0.0,-488.5693104999999,-331.3833435647051,-300.81383296621163,-322.3731450129569,-205.61623558834194
75.22556686401367,-4.9030084999999985,0.5614904652179294,-7.444760536308465,0.02574150064002937,0.5614904652179294,0.0,0.0,0.0,,0.0,-403.1574754999999,-326.64196591157844,-291.05420291408296,-313.10177428790513,-205.61623558834194
75.22556686401367,3.915675499999992,2.6081151147583,-4.760448654883746,0.2807055883039375,2.6081151147583,0.0,0.0,0.0,,0.0,-536.4138505,-330.88499951028945,-288.0031158496156,-318.9481848323289,-205.61623558834194
75.22635293006897,4.8506505,2.6845597295748607,-4.244760441200793,0.2343681166632943,2.6845597295748607,0.0,0.0,0.0,,0.0,-567.0585904999999,-356.6524595951916,-306.8626912473762,-331.9356848276854,-205.61623558834194
75.22635293006897,0.6357835000000023,0.3074720175244118,-6.436825528844551,-0.06744701432479501,0.3074720175244118,0.0,0.0,0.0,,0.0,-455.44875649999994,-388.8304228877849,-333.1870427551677,-370.29974297635596,-205.61623558834194
75.24062085151672,-8.889741500000014,-2.2505242552678904,-8.998914778800767,-0.8414187842379653,-2.2505242552678904,0.0,0.0,0.0,,0.0,-467.6370905,-359.7841565166988,-295.424306111274,-358.6640940411644,-205.61623558834194
75.24062085151672,0.13089650000000574,-2.8551508134429144,-9.597386347616387,-1.9993769149102376,-2.8551508134429144,0.0,0.0,0.0,,0.0,-527.9205375,-208.10983301021855,-135.6834462888975,-197.65581423815834,-205.61623558834194
75.24126505851746,-7.986556500000006,-2.7214614806843667,-8.891911400677113,-3.514851171610754,-2.7214614806843667,0.0,0.0,0.0,,0.0,-22.21500549999996,18.913756347970107,87.52619601583821,11.13261384914967,18.913756347970107
75.254891872406,5.219030500000002,-4.849635362535084,-9.052942391104189,-5.694439074671004,-4.849635362535084,0.0,0.0,0.0,,0.0,9.155275500000016,183.78780471963654,234.4690477122536,154.29544242145417,183.78780471963654
75.254891872406,-16.057260500000012,-8.469034933315552,-9.061689421524179,-7.132560459851882,-8.469034933315552,0.0,0.0,0.0,,0.0,81.32038450000005,208.28192682731506,241.43582102812462,193.68493244327848,113.74293940921973
75.27065992355347,-16.416290500000002,-8.54352700991307,-5.05100752596805,-6.173680667452462,-8.54352700991307,0.0,0.0,0.0,,0.0,-44.684324499999946,148.8503946714224,174.5573302626072,156.73594403454706,148.8503946714224
75.27065992355347,5.903432500000008,-3.292410620359572,2.748696951668583,-3.769469511213666,-3.292410620359572,0.0,0.0,0.0,,0.0,-63.35390549999994,105.66058190111262,126.670464869562,99.69510655389425,105.66058190111262
75.27132892608643,3.8090885000000014,2.166731699184324,8.211702854506944,-1.2345959403149533,2.166731699184324,0.0,0.0,0.0,,0.0,-22.727371499999947,113.74293940921973,126.44648051980954,101.55012788225504,113.74293940921973
75.27132892608643,-5.420984500000003,2.969064552490665,7.548608344340546,0.6103586419080758,2.969064552490665,0.0,0.0,0.0,,0.0,37.066148500000054,143.94622051530837,152.85710730876943,136.16118772013448,143.94622051530837
75.28495597839355,0.013089500000006637,0.7939398536513473,4.484465030440044,0.7699606668335429,0.7939398536513473,0.0,0.0,0.0,,0.0,-42.89665249999996,162.2538498309001,182.35762380551324,145.95189394646607,162.2538498309001
75.28495597839355,2.847934500000008,-0.18382836863026292,4.206795896010532,-0.35135258142270664,-0.18382836863026292,0.0,0.0,0.0,,0.0,-11.193520499999977,157.5750840176716,197.5440613604997,141.9958914539615,157.5750840176716
75.30069899559021,5.536922500000003,0.3734155342227983,6.382141230878195,-1.6367509036818564,0.3734155342227983,0.0,0.0,0.0,,0.0,20.726525500000037,137.1965027533651,189.68412246059765,137.34380883007782,137.1965027533651
75.30069899559021,-12.930703499999993,-0.40972328320642487,6.819855062907859,-3.1310209010038084,-0.40972328320642487,0.0,0.0,0.0,,0.0,-20.28895749999998,120.02969227207498,172.05932564313767,132.98082856887174,120.02969227207498
75.30136585235596,-0.7610694999999907,-4.072521903788566,3.303151685132401,-5.276457024172806,-4.072521903788566,0.0,0.0,0.0,,0.0,-53.26365449999997,122.34455554400463,168.49059003411796,133.39327551608037,122.34455554400463
75.30136585235596,-3.289241500000003,-8.691873093744139,-1.9498934121941183,-7.061756763504553,-8.691873093744139,0.0,0.0,0.0,,0.0,-21.08929549999999,138.18605734852883,178.45395560647106,134.7876728476703,138.18605734852883
75.31495594978333,-13.192496500000004,-10.6801225870986,-4.69131419348491,-7.282889295539664,-10.6801225870986,0.0,0.0,0.0,,0.0,5.4452945000000454,144.2118735729292,175.57426276696052,133.17010980315587,144.2118735729292
75.31495594978333,-14.172350499999993,-8.861211614181506,-3.504036533641753,-6.818731617832526,-8.861211614181506,0.0,0.0,0.0,,0.0,-0.744239499999992,128.42432610973182,144.57679648882407,127.60741181471035,128.42432610973182
75.33068704605103,-7.466709500000007,-6.583445232946184,-2.0265557428170347,-6.7236773726284795,-6.583445232946184,0.0,0.0,0.0,,0.0,-34.29488249999997,104.82141556871592,104.54876409272245,113.89953808592342,104.82141556871592
75.33068704605103,-0.20382449999999608,-7.962540635722057,-4.53383138478251,-7.194961231122756,-7.962540635722057,0.0,0.0,0.0,,0.0,-97.13268149999999,96.55595077094111,88.8254884574962,101.24238952831585,96.55595077094111
75.33136987686157,-13.271034500000013,-12.241167395821757,-9.823813059518777,-8.502507064109304,-12.241167395821757,0.0,0.0,0.0,,0.0,-24.17845249999999,109.28551072206314,103.75228026070786,104.48544149388113,109.28551072206314
75.33136987686157,-24.12422450000001,-14.683881051279444,-12.479137740530255,-9.672647172899518,-14.683881051279444,0.0,0.0,0.0,,0.0,39.16049250000003,125.52515025595768,120.99856966646115,113.88425700562107,125.52515025595768
75.34504389762878,-10.110819499999991,-12.984414859828735,-10.146808560408452,-9.66866384040983,-12.984414859828735,0.0,0.0,0.0,,0.0,-53.087879499999985,126.50788100034895,114.39518296248256,113.75478177985174,126.50788100034895
75.34504389762878,-2.0775145000000066,-9.38788286795871,-5.669101084898997,-8.82312426404719,-9.38788286795871,0.0,0.0,0.0,,0.0,-34.713751499999944,113.64083695634676,92.17399931050969,109.84973292756537,113.64083695634676
75.36083698272705,-8.8803925,-6.6342548948325195,-2.349077392396513,-7.128992090393004,-6.6342548948325195,0.0,0.0,0.0,,0.0,-50.82898049999994,102.9380553914564,81.15553035146618,110.8133245053768,102.9380553914564
75.36083698272705,-14.460322500000018,-5.75825209713235,-1.4157299329605815,-5.952227957812552,-5.75825209713235,0.0,0.0,0.0,,0.0,35.07278250000002,104.65347447987442,91.7300813392286,113.82518657558808,104.65347447987442
75.36142897605896,-2.7843555000000038,-7.454917173347912,-3.345712187572164,-7.244189572907836,-7.454917173347912,0.0,0.0,0.0,,0.0,-50.46246949999994,115.21410621455892,114.50941237645317,116.20872299398819,115.21410621455892
75.36142897605896,-4.66178450000001,-11.064087524776564,-7.031804259053441,-8.882341661703526,-11.064087524776564,0.0,0.0,0.0,,0.0,-47.99039549999998,124.01085086717245,136.3377714277352,117.24973729886091,124.01085086717245
75.37494397163391,-16.41255050000001,-12.660039923003483,-8.24473618777061,-8.53400064483834,-12.660039923003483,0.0,0.0,0.0,,0.0,30.424086500000044,123.37027912437696,145.5952572758117,115.53995099257972,123.37027912437696
75.37494397163391,-14.793173499999995,-8.742590983816964,-3.6657557191559684,-6.439817593993441,-8.742590983816964,0.0,0.0,0.0,,0.0,0.624563500000022,116.24279597791174,135.24957410657302,114.64175767922228,116.24279597791174
75.39077591896057,4.628126500000008,-1.611685568610648,3.850687423725633,-2.134773933463146,-1.611685568610648,0.0,0.0,0.0,,0.0,-17.517691499999955,115.56285820657043,113.51580830955498,116.89566615543065,115.56285820657043
75.39077591896057,1.7297044999999969,2.6800843503969602,7.91332611949035,1.755300628980302,2.6800843503969602,0.0,0.0,0.0,,0.0,-13.295344499999942,130.6295451594831,103.38691251573124,121.23973554808114,130.6295451594831
75.39135003089905,7.216137500000002,1.6803168665684112,6.359454478989986,0.896448240333714,1.6803168665684112,0.0,0.0,0.0,,0.0,15.857176500000037,152.09016115781037,118.39978056837393,131.3679768293606,152.09016115781037
75.39135003089905,-8.487702500000012,-0.8774305692472153,3.5029083274651898,-1.4992119306085379,-0.8774305692472153,0.0,0.0,0.0,,0.0,86.49266650000004,156.55468916674653,142.8783664026572,138.18243333465713,156.55468916674653
75.4051308631897,0.031789500000002135,-0.31657591599091817,4.183943988653963,-0.300263690586327,-0.31657591599091817,0.0,0.0,0.0,,0.0,16.94922650000001,134.03619881928248,148.87019507205306,124.27875473622805,134.03619881928248
75.4051308631897,8.480223499999994,3.0779771951058486,7.6588481601092395,2.54144318767944,3.0779771951058486,0.0,0.0,0.0,,0.0,-55.96386249999995,106.41920468705261,131.42879298992648,107.3794872743653,106.41920468705261
75.4205870628357,8.842993500000006,5.226712999826538,9.336247097365483,3.903878122234158,5.226712999826538,0.0,0.0,0.0,,0.0,-9.33479049999994,104.06973763399907,113.20245826517578,115.29015626830778,104.06973763399907
75.4205870628357,-2.8890724999999975,4.546860176099193,7.740089644210514,4.487543454641828,4.546860176099193,0.0,0.0,0.0,,0.0,66.82079250000004,126.25211050085329,112.00418703118012,132.84891897457362,126.25211050085329
75.42137885093689,5.974490500000002,4.023544301929173,6.448905516848658,5.336934881847149,4.023544301929173,0.0,0.0,0.0,,0.0,25.868888500000025,143.76016562401685,120.06497766328435,136.66338820459504,143.76016562401685
75.42137885093689,10.174398499999995,6.180631487520647,8.312350894771125,6.053267439675286,6.180631487520647,0.0,0.0,0.0,,0.0,-0.8414774999999395,140.1102156974662,123.1265365656252,133.1319222868977,140.1102156974662
75.4351270198822,13.057861500000001,9.01541813862381,11.038711643508133,6.2925656104068235,9.01541813862381,0.0,0.0,0.0,,0.0,25.468718500000023,128.43028023690164,122.98711136813645,131.99921325879484,128.43028023690164
75.4351270198822,1.5352294999999856,9.079916697927176,10.736899153803833,6.448815417644928,9.079916697927176,0.0,0.0,0.0,,0.0,58.40601750000002,125.19757540397175,128.84836359390187,131.58038715889106,125.19757540397175
75.45070004463196,11.412305500000002,6.771565936257639,7.755145943190978,6.588227609066393,6.771565936257639,0.0,0.0,0.0,,0.0,43.629673500000024,128.75541401607416,137.2418293592168,130.46419368815717,128.75541401607416
75.45070004463196,8.8803925,5.8377153833803845,6.105843728484971,6.803188998685874,5.8377153833803845,0.0,0.0,0.0,,0.0,-24.77309749999995,130.31823617400795,135.63149037408527,128.69717520975829,130.31823617400795
75.45136904716492,9.190804499999985,7.763130805612383,7.4353459009005265,7.8874644363195925,7.763130805612383,0.0,0.0,0.0,,0.0,55.63475150000005,128.6128620645953,123.09693055042196,125.59494351296236,128.6128620645953
75.45136904716492,5.67903849999999,9.250924303191528,8.396146782804221,8.407238098042527,9.250924303191528,0.0,0.0,0.0,,0.0,66.31964650000003,125.43544471424335,113.49660091140245,121.69230194367451,125.43544471424335
75.46498394012451,10.215537499999982,6.814541999020918,5.4744429689642145,6.168081139688468,6.814541999020918,0.0,0.0,0.0,,0.0,20.101962500000013,119.67581229153674,117.57202568725181,117.8775782844989,119.67581229153674
75.46498394012451,5.174151499999994,2.2056035176922855,0.5344130437601233,3.5491857952426638,2.2056035176922855,0.0,0.0,0.0,,0.0,18.538684500000045,112.50438145945338,129.20817993067413,114.02043761319862,112.50438145945338
75.48053693771362,4.392512500000009,0.9038940243902036,-0.8706762711011213,3.1313904713613163,0.9038940243902036,0.0,0.0,0.0,,0.0,-20.775144499999953,107.83553233206788,131.57278994352862,109.87783390913934,107.83553233206788
75.48053693771362,0.843347499999993,5.3595608387515075,3.565750750351982,4.230233468617275,5.3595608387515075,0.0,0.0,0.0,,0.0,108.24018450000003,103.81161398366312,114.86138352138563,105.57208650046324,103.81161398366312
75.49567604064941,12.003209499999997,11.372732801983698,9.387756021079905,7.127587098326344,11.372732801983698,0.0,0.0,0.0,,0.0,-5.007725499999992,95.23350584153631,87.89535114462677,101.24310175107102,95.23350584153631
75.49567604064941,19.8569995,12.191625035127682,9.740953505866559,9.101695875404335,12.191625035127682,0.0,0.0,0.0,,0.0,-32.20053849999999,85.34786884846234,73.89826734236244,96.97494261012562,85.34786884846234
75.4964530467987,9.632112500000005,6.382456487325721,3.3657903531292845,5.22471168317143,6.382456487325721,0.0,0.0,0.0,,0.0,14.529511500000012,82.11100424109148,84.62537391534694,92.81996747762727,82.11100424109148
75.4964530467987,-5.679037499999993,0.36709562107158844,-2.987993193427948,0.21425968418431093,0.36709562107158844,0.0,0.0,0.0,,0.0,64.0532665,84.1388159334262,104.2433701308247,88.95897799878652,84.1388159334262
75.51058006286621,3.506156500000003,1.1163446933007222,-2.2098657225568283,1.2124559516125848,1.1163446933007222,0.0,0.0,0.0,,0.0,0.6395235000000525,83.60563028389389,110.29411792661264,85.54469336444112,83.60563028389389
75.51058006286621,11.606779499999988,7.154334000741719,3.962041215204251,4.618061377658588,7.154334000741719,0.0,0.0,0.0,,0.0,-19.32780249999996,80.47524704971026,99.91679775613896,82.42523604225809,80.47524704971026
75.51130485534668,18.327380500000004,10.241919457787432,6.952371889713607,5.491160348234185,10.241919457787432,0.0,0.0,0.0,,0.0,23.41551350000003,81.83361873178262,86.94902276789833,79.41514069632142,81.83361873178262
75.51130485534668,-2.286948499999994,6.094999275669053,2.533112187728158,4.299848771103497,6.094999275669053,0.0,0.0,0.0,,0.0,72.89813050000004,88.17871306910013,81.39432423948696,76.26874840279632,88.17871306910013
75.52500987052917,2.533782500000001,-0.6172642425950411,-4.247898012773308,1.233572555751096,-0.6172642425950411,0.0,0.0,0.0,,0.0,9.36470950000006,89.94887099457677,79.81190186354016,72.72515252146356,89.94887099457677
75.52500987052917,3.887626499999982,-3.2047546020680002,-6.501476619393118,-2.038102913896921,-3.2047546020680002,0.0,0.0,0.0,,0.0,20.23285850000002,80.41348206381412,75.17323665148487,68.87931405148376,80.41348206381412
75.54069805145264,1.4604314999999986,-1.256107966557448,-4.058760121442054,-2.251499878092984,-1.256107966557448,0.0,0.0,0.0,,0.0,-17.914120499999967,66.204237346079,67.12279300022487,64.92960576792392,66.204237346079
75.54069805145264,-5.0694345,0.28979587043182276,-2.2011685826438367,-1.136588962615173,0.28979587043182276,0.0,0.0,0.0,,0.0,80.24703350000004,59.309322506817715,58.6912558052903,60.99887296814128,59.309322506817715
75.5412769317627,4.845040499999982,-1.5218206845595037,-3.879801899414993,-2.212985081540125,-1.5218206845595037,0.0,0.0,0.0,,0.0,-19.80277049999995,61.33766285862644,48.68305065976679,57.216770750628555,61.33766285862644
75.5412769317627,0.7386304999999993,-3.833086436374046,-5.960989747895237,-3.278320544557994,-3.833086436374046,0.0,0.0,0.0,,0.0,0.84895750000004,63.17757607424281,35.50545223858748,53.64744205777083,63.17757607424281
75.55492401123047,-0.7012305000000083,-2.1004573156509414,-3.80062642490932,-1.068703836925907,-2.1004573156509414,0.0,0.0,0.0,,0.0,24.197152500000016,59.449727829716934,26.832190268019737,50.30756274674063,59.449727829716934
75.55492401123047,1.7446635000000015,3.372975476319297,2.0468215401851433,2.083103728817617,3.372975476319297,0.0,0.0,0.0,,0.0,28.31852250000003,54.34098396251616,34.22415103695391,47.16415543512606,54.34098396251616
75.5869688987732,8.973890499999982,7.242642869710902,5.955427380907652,3.305187793128373,7.242642869710902,0.0,0.0,0.0,,0.0,32.55208950000002,51.98679817800629,56.287673816920915,44.23105025954636,51.98679817800629
75.5869688987732,16.285394499999995,5.689623435114371,4.160543028541109,2.834597610587557,5.689623435114371,0.0,0.0,0.0,,0.0,-23.572589499999992,50.18585289005314,76.01674227729694,41.48011829918463,50.18585289005314
75.58766484260559,-0.34594050000001175,0.7921997996308379,-0.9546861261436455,0.9568548306279601,0.7921997996308379,0.0,0.0,0.0,,0.0,-5.284478499999977,45.80683888636284,77.82697515760728,38.80861384883237,45.80683888636284
75.58766484260559,-7.511588500000016,-2.8110621788711443,-4.540477199736354,-1.0920233794845347,-2.8110621788711443,0.0,0.0,0.0,,0.0,76.45851450000004,39.83552769535091,63.362413671503106,36.52005327473862,39.83552769535091
75.58835196495056,6.086687499999982,-3.2382495468503807,-4.7492253808558,-1.4842934801942516,-3.2382495468503807,0.0,0.0,0.0,,0.0,-14.062023499999952,36.089910644935365,48.441747357553886,34.82793987964103,36.089910644935365
75.58835196495056,1.935398499999991,-1.7569087863830721,-3.0153431866669207,-0.8898400351876007,-1.7569087863830721,0.0,0.0,0.0,,0.0,-24.38040749999999,37.28111390575162,45.57797524275664,33.47498464126231,37.28111390575162
75.58918595314026,0.23374450000000024,-0.33848586276918385,-1.4260237698226854,-0.49699208565461367,-0.33848586276918385,0.0,0.0,0.0,,0.0,16.35458250000005,41.34903222983592,49.33185127216926,32.296704100120884,41.34903222983592
75.58918595314026,-0.44317749999999023,-0.44440314716460216,-1.4233723921965697,-0.2964227598015313,-0.44440314716460216,0.0,0.0,0.0,,0.0,80.98753350000004,43.05377018594016,44.520945009159526,30.469287023926846,43.05377018594016
75.59994292259216,2.810535499999986,-1.944810442581999,-2.761758927771892,-0.3065224806829881,-1.944810442581999,0.0,0.0,0.0,,0.0,-17.364355499999988,40.35878547836124,30.353091226794938,27.229618520661745,40.35878547836124
75.59994292259216,1.464171499999992,-2.4939575545194597,-3.0319769858646852,-0.384961860459163,-2.4939575545194597,0.0,0.0,0.0,,0.0,14.14430150000004,35.15613931880189,20.970897686417267,23.214967403222783,35.15613931880189
75.61490893363953,4.190558500000009,-0.437449399804375,-0.7069557588249504,-0.1787379434303992,-0.437449399804375,0.0,0.0,0.0,,0.0,-17.035244499999976,27.34473167892609,21.357095979772886,19.137501474993773,27.34473167892609
75.61490893363953,-3.876405500000004,2.008660869688429,1.7894487494241806,0.14898360568321933,2.008660869688429,0.0,0.0,0.0,,0.0,60.36946550000005,15.111619037971103,19.432909167045636,16.187609439534057,15.111619037971103
75.63900899887085,11.580600500000003,1.6427954963999902,1.2358287183448835,0.3109298853372968,1.6427954963999902,0.0,0.0,0.0,,0.0,-11.260838499999977,3.600726112543043,8.441007367570677,15.595327800063826,3.600726112543043
75.63900899887085,4.605687499999988,-0.4911193623773936,-1.1063061252700592,0.4148672243130912,-0.4911193623773936,0.0,0.0,0.0,,0.0,-51.87615249999999,4.428951789713109,2.5521770129846324,16.58556273023391,4.428951789713109
75.6390860080719,-5.858552500000002,-0.7140088609705866,-1.3745344902115253,0.6164056132157099,-0.7140088609705866,0.0,0.0,0.0,,0.0,1.2528665000000387,18.815967033265938,15.173841847470738,18.055890484036862,18.815967033265938
75.6390860080719,11.0794535,1.2815963394345924,0.7078448112211007,0.8299424064749106,1.2815963394345924,0.0,0.0,0.0,,0.0,85.35947650000003,30.45341117987091,35.04360331130048,19.037999948202252,30.45341117987091
75.64679193496704,-1.3706735000000094,2.461235756105434,2.011316828502151,0.9722431801266962,2.461235756105434,0.0,0.0,0.0,,0.0,23.576329500000043,26.800493860769702,42.30523932325694,18.37983620927954,26.800493860769702
75.64679193496704,10.795221499999997,1.8210816217808332,1.4899465241810952,1.0524854485172457,1.8210816217808332,0.0,0.0,0.0,,0.0,-58.76504749999998,17.000806928969343,36.23947924117736,16.58282919109087,17.000806928969343
75.6753499507904,5.323747499999996,1.5000231047296593,1.2258894897933048,1.065586312465383,1.5000231047296593,0.0,0.0,0.0,,0.0,41.98785750000002,15.717109755455407,29.65173614809483,14.597198054983958,15.717109755455407
75.6753499507904,-1.1836785000000134,2.728791563761009,2.361149345170111,1.11417898495607,2.728791563761009,0.0,0.0,0.0,,0.0,63.91489050000001,21.322067023875555,25.974001659609534,12.374127139796848,21.322067023875555
75.69200301170349,7.8369605000000035,3.940702507474546,3.3328292705703513,1.2739568020414758,3.940702507474546,0.0,0.0,0.0,,0.0,4.925448500000016,22.593174444128916,19.240115261139216,10.18522493674699,22.593174444128916
75.69200301170349,12.54549449999999,3.542390758980109,2.692105778780765,1.4773360434647549,3.542390758980109,0.0,0.0,0.0,,0.0,-5.310657499999991,15.845801159026975,8.972274185680675,7.970406593840358,15.845801159026975
75.69262099266052,5.869773500000008,2.4903009210192684,1.5382758980692572,1.6633151793740342,2.4903009210192684,0.0,0.0,0.0,,0.0,-2.2289804999999774,5.94005383952123,0.10681697966449377,5.352528408323449,5.94005383952123
75.69262099266052,-4.482269500000001,2.363767035656589,1.433063312491455,1.5469037941659354,2.363767035656589,0.0,0.0,0.0,,0.0,63.18934950000005,-0.9926366899511334,-5.291682568981344,4.0741701005202176,-0.9926366899511334
75.69337606430054,8.435344499999985,2.082762897327982,1.1706765600673505,0.9502052582304303,2.082762897327982,0.0,0.0,0.0,,0.0,-12.064917499999979,0.06513680244330222,-7.879212685867051,4.8670369119445445,0.06513680244330222
75.69337606430054,11.090673500000008,-0.4600607495212188,-1.356421588648193,0.029221731714760585,-0.4600607495212188,0.0,0.0,0.0,,0.0,-9.671381499999995,10.807407515994162,-5.289177014103641,6.9671602218096735,10.807407515994162
75.69409584999084,-7.264755500000007,-4.051373661439712,-4.773043932786904,-1.2617344572177422,-4.051373661439712,0.0,0.0,0.0,,0.0,31.482478500000013,24.301406088907314,3.965460793445949,12.014733511411928,24.301406088907314
75.69409584999084,-5.8697725000000105,-5.11848407533399,-5.445463271356704,-2.2517649876776127,-5.11848407533399,0.0,0.0,0.0,,0.0,77.59918450000004,26.22508828019559,9.074092915582142,14.660090610441134,26.22508828019559
75.70496392250061,2.2233704999999873,-2.9137264928475335,-2.820452483915718,-1.8657527575633515,-2.9137264928475335,0.0,0.0,0.0,,0.0,16.021731500000044,8.733041898760856,-6.196669396718828,5.583425932203519,8.733041898760856
75.70496392250061,6.427018500000003,-0.35911452935269605,-0.09800761925742202,-1.0047494708637792,-0.35911452935269605,0.0,0.0,0.0,,0.0,-27.394766499999946,-16.242633138120244,-36.07971495795509,-6.362861362277845,-16.242633138120244
75.72061705589294,3.1770454999999913,0.13175546767013752,0.20740598809557623,-1.0844104676028445,0.13175546767013752,0.0,0.0,0.0,,0.0,-27.847294499999975,-26.20864865321645,-49.60734722178611,-7.068291226992772,-26.20864865321645
75.72061705589294,-4.960976500000015,-1.0011071712539221,-1.2587228326216993,-1.497511700301799,-1.0011071712539221,0.0,0.0,0.0,,0.0,37.933805500000005,-16.107387936016266,-30.893215129743457,-2.878072975421544,-16.107387936016266
75.72133994102478,4.037222499999984,-2.0319208580210546,-2.4604969210960412,-1.3316538747161832,-2.0319208580210546,0.0,0.0,0.0,,0.0,13.815190500000028,-6.016637729021593,-3.8525954455207785,-4.367495252194809,-6.016637729021593
75.72133994102478,2.9302114999999844,-1.8454891093556736,-2.172404184756735,-0.7457596045779907,-1.8454891093556736,0.0,0.0,0.0,,0.0,-8.728926499999943,-10.621980625296352,3.812472121147648,-7.8399277950931845,-10.621980625296352
75.75004601478577,5.162932499999982,-0.2685195384996827,-0.388679278267801,0.004955596580056487,-0.2685195384996827,0.0,0.0,0.0,,0.0,-39.972050499999966,-16.479379539651035,0.33201705889426236,-7.715388569718754,-16.479379539651035
75.75004601478577,-3.0835475000000088,2.1840436432397126,2.155974291936503,0.8010250873438591,2.1840436432397126,0.0,0.0,0.0,,0.0,77.38601050000005,-7.05215193233352,7.055758712574373,-6.356826842778457,-7.05215193233352
75.75343203544617,11.337507499999987,4.402240478881279,4.294767456370358,1.5964133532455207,4.402240478881279,0.0,0.0,0.0,,0.0,2.737607500000024,6.85283268838434,17.994099704498314,-6.941996235996103,6.85283268838434
75.75343203544617,6.505556499999983,5.059301133343632,4.842412085600566,2.2946964451214193,5.059301133343632,0.0,0.0,0.0,,0.0,43.80544850000001,4.890121471234725,13.663266675590691,-8.535322769290053,4.890121471234725
75.75347590446472,14.056414499999988,3.9142283908908286,3.6755753959583473,2.4579745468205356,3.9142283908908286,0.0,0.0,0.0,,0.0,-74.06123849999994,-9.601564526709787,-1.5879315723082499,-9.757065884138548,-9.601564526709787
75.75347590446472,-4.5009694999999965,2.867550715051184,2.602757890076603,2.517481214664429,2.867550715051184,0.0,0.0,0.0,,0.0,112.74676450000004,-17.605758608895254,-6.736684446927168,-11.357241007571766,-17.605758608895254
75.76489591598511,7.945417499999991,4.0760032808301405,3.653047844241261,3.5056939339664184,4.0760032808301405,0.0,0.0,0.0,,0.0,-20.92847949999998,-14.156803710336812,0.32529602137491587,-13.78204706469446,-14.156803710336812
75.76489591598511,12.489396499999998,6.33726600445741,5.650540873157285,4.192083707559941,6.33726600445741,0.0,0.0,0.0,,0.0,-35.177498499999956,-11.183314062495153,-1.1135178107838222,-16.568423070982632,-11.183314062495153
75.78065085411072,11.54320150000001,5.7338264358888225,4.909064271055569,2.921899173793054,5.7338264358888225,0.0,0.0,0.0,,0.0,26.355075500000055,-17.255724305004392,-22.718136039343907,-19.60284891664234,-17.255724305004392
75.78065085411072,-3.1433854999999937,1.3330570504377175,0.691739885440812,1.069254968219856,1.3330570504377175,0.0,0.0,0.0,,0.0,29.82196250000004,-26.338776961340294,-47.264359662726896,-20.903516643396173,-26.338776961340294
75.7812979221344,0.34968050000000517,-2.3253912581526124,-2.5998338137637327,0.015326107768722267,-2.3253912581526124,0.0,0.0,0.0,,0.0,-16.26108449999998,-26.840772200371223,-50.09460649572519,-18.698815030133755,-26.840772200371223
75.7812979221344,4.818861499999997,-0.651303059575484,-0.7378048102062396,0.1038385628801461,-0.651303059575484,0.0,0.0,0.0,,0.0,-21.33612949999997,-17.25457458474845,-33.282310827863625,-14.411128041370322,-17.25457458474845
75.79498791694641,10.791481500000003,4.921822203484517,4.699196994414092,2.195402564010014,4.921822203484517,0.0,0.0,0.0,,0.0,16.530358500000034,-6.8106177700955195,-20.076372973186928,-9.526852761432751,-6.8106177700955195
75.79498791694641,3.659492499999999,8.478913967267667,7.9331684663456405,4.2830297747264385,8.478913967267667,0.0,0.0,0.0,,0.0,75.69931550000001,-1.621356153752921,-21.370043513574863,-7.313059779796924,-1.621356153752921
75.81060791015625,7.548988500000007,6.335599283516727,5.518761112235159,3.395684093095119,6.335599283516727,0.0,0.0,0.0,,0.0,-10.628795499999967,-1.4342142496523118,-27.31104749847476,-10.942629829595798,-1.4342142496523118
75.81060791015625,11.632959499999998,0.719809598367014,-0.28985855834550633,1.1406108177092857,0.719809598367014,0.0,0.0,0.0,,0.0,0.8452175000000466,-9.759136423963444,-31.172939603430716,-18.384276908131252,-9.759136423963444
75.81131196022034,-4.212996500000003,-3.059634765162354,-4.169702773591787,-0.10048583970115424,-3.059634765162354,0.0,0.0,0.0,,0.0,-3.220053499999949,-30.087882779384945,-38.8092565765065,-26.92589961708378,-30.087882779384945
75.81131196022034,-6.284901500000018,-2.41671161005704,-3.5084213404547344,-0.5461049577566677,-2.41671161005704,0.0,0.0,0.0,,0.0,10.957907500000033,-49.90033186851572,-49.2241013367579,-32.80697786526369,-49.90033186851572
75.82488203048706,5.581801499999983,0.26708821930876486,-0.8399369951150468,-0.3865548086307367,0.26708821930876486,0.0,0.0,0.0,,0.0,-33.15047249999998,-48.43760784625885,-49.41461594776005,-32.2825236777462,-48.43760784625885
75.82488203048706,7.70980449999999,1.401278116337617,0.12547243332157842,-0.07145210552739734,1.401278116337617,0.0,0.0,0.0,,0.0,-41.752242499999966,-25.96743927197772,-36.75680807208509,-27.093317520422442,-25.96743927197772
75.8407130241394,-0.6675715000000082,0.5454623522871156,-0.8971168371025053,-0.6059142097721177,0.5454623522871156,0.0,0.0,0.0,,0.0,42.20851150000004,-6.859784103436442,-26.16105737171958,-20.022049832827047,-6.859784103436442
75.8407130241394,0.28610249999999837,-0.25652273065804904,-1.5809080472456318,-1.2601118625347179,-0.25652273065804904,0.0,0.0,0.0,,0.0,38.96227750000003,-7.5087058938643745,-26.34404163052438,-14.592671097095925,-7.5087058938643745
75.84142088890076,0.28236250000000496,0.024214798359697837,-0.9497583304159876,-0.6381862901533832,0.024214798359697837,0.0,0.0,0.0,,0.0,3.582824500000015,-18.322570810715607,-26.594608964574114,-14.24875092815621,-18.322570810715607
75.84142088890076,4.239176499999985,0.35257359278218114,-0.40685282720265903,0.6793100492828891,0.35257359278218114,0.0,0.0,0.0,,0.0,-26.44483249999996,-23.957750176949908,-17.076148115547895,-17.856979094664204,-23.957750176949908
75.85488390922546,6.984263499999997,-0.014449553850497537,-0.8852888479594712,1.3332440284319356,-0.014449553850497537,0.0,0.0,0.0,,0.0,-22.992904499999952,-24.51456068033643,-7.738788537079689,-23.511736495301644,-24.51456068033643
75.85488390922546,-5.118052500000005,0.5990352591076286,-0.49282651675157874,2.1268782408935,0.5990352591076286,0.0,0.0,0.0,,0.0,82.11698350000006,-26.245690126995445,-12.285411080031185,-27.51129580347512,-26.245690126995445
75.87058305740356,2.9900504999999953,4.176669901406068,2.9747405665925224,4.619264838302087,4.176669901406068,0.0,0.0,0.0,,0.0,-44.01114249999995,-25.518755691382903,-24.303470130073705,-26.864656279797508,-25.518755691382903
75.87058305740356,15.623432500000007,8.868358113780747,7.543733267013098,7.186500101434286,8.868358113780747,0.0,0.0,0.0,,0.0,-25.696852499999977,-17.684417425741156,-27.139230951068537,-23.564346251028564,-17.684417425741156
75.87129592895508,17.609319499999998,10.29250171648212,8.686567575095916,7.383053915409028,10.29250171648212,0.0,0.0,0.0,,0.0,29.02910350000002,-12.5096851499676,-19.932311237999517,-17.546472879922998,-12.5096851499676
75.87129592895508,-2.6160595000000058,7.893632433581548,6.066812599301186,6.449738089037137,7.893632433581548,0.0,0.0,0.0,,0.0,31.81532950000002,-22.907210953868855,-15.563009531147813,-15.010247882983373,-22.907210953868855
75.88489198684692,9.568534499999998,6.093331608496582,4.3553548810448,6.360701457578487,6.093331608496582,0.0,0.0,0.0,,0.0,-27.49200449999995,-43.262494924368596,-19.95543522207663,-26.133632214999754,-43.262494924368596
75.88489198684692,13.802101499999992,7.537161752535291,5.893644817221496,6.411634953780526,7.537161752535291,0.0,0.0,0.0,,0.0,-65.30239249999994,-54.18970407754767,-28.223823736292026,-39.13723386561862,-54.18970407754767
75.90060806274414,7.840700499999997,8.97791677850714,6.843503045705283,5.647096663937407,8.97791677850714,0.0,0.0,0.0,,0.0,-22.761030499999947,-45.80977899228159,-33.48779043776288,-38.02882695620743,-45.80977899228159
75.90060806274414,6.105387500000006,6.399220615982206,3.2109462566079845,4.305754506439985,6.399220615982206,0.0,0.0,0.0,,0.0,31.845248500000025,-25.85747197898778,-30.3601504866601,-28.37705698149946,-25.85747197898778
75.90128183364868,2.6945984999999837,1.4073600666910808,-2.5493440871382824,2.6336550546441013,1.4073600666910808,0.0,0.0,0.0,,0.0,19.60081550000001,-7.71525327481131,-18.134638879606115,-18.445878422857636,-7.71525327481131
75.90128183364868,-4.572027500000019,-1.1951586568234152,-5.009612567468544,0.9346190163275625,-1.1951586568234152,0.0,0.0,0.0,,0.0,-18.16469349999994,0.4940519241178601,-6.41053367462744,-12.921081438942876,0.4940519241178601
75.91487789154053,10.417491499999983,-0.6650005461341942,-3.7430864993750084,-0.3592026949518966,-0.6650005461341942,0.0,0.0,0.0,,0.0,-2.513212499999952,-4.730171434593777,-10.879941844633795,-15.544459832091821,-4.730171434593777
75.91487789154053,-8.652258500000016,-0.5180485670163875,-2.9312476749301015,-1.2499712070627926,-0.5180485670163875,0.0,0.0,0.0,,0.0,67.13120450000002,-23.16302878132706,-35.75804518138325,-23.508897180571015,-23.16302878132706
75.9305670261383,-2.414105500000005,-2.1861477219575343,-4.312214594481179,-1.8712296206319499,-2.1861477219575343,0.0,0.0,0.0,,0.0,-46.060607499999946,-44.38947160863799,-62.10337102563094,-35.72248261162637,-44.38947160863799
75.9305670261383,1.2285574999999938,-3.4923836275443145,-5.637669685358881,-2.1632683739170955,-3.4923836275443145,0.0,0.0,0.0,,0.0,-65.56044549999996,-49.34252863312381,-63.5493775347211,-43.714898090881476,-49.34252863312381
75.93133783340454,-3.0723275,-3.1392870690744954,-5.445133230039788,-2.0942563987321567,-3.1392870690744954,0.0,0.0,0.0,,0.0,-4.622516499999961,-30.540899027654383,-37.25426069253966,-33.77295142511563,-30.540899027654383
75.93133783340454,-1.6100265000000036,-2.0617994972586353,-4.438721812976809,-1.7360916454320845,-2.0617994972586353,0.0,0.0,0.0,,0.0,24.425286500000027,-6.892501252195805,-9.700485876499553,-19.290412028052195,-6.892501252195805
75.94489002227783,-8.237129500000009,-0.7089636350830621,-2.805834035207236,-1.2316038613340716,-0.7089636350830621,0.0,0.0,0.0,,0.0,54.17245150000002,-5.223620433280149,-5.528767431220224,-20.82476307631562,-5.223620433280149
75.94489002227783,9.867726500000003,0.9861664287501658,-0.48925410860741814,-0.7185668991609467,0.9861664287501658,0.0,0.0,0.0,,0.0,-77.78991849999994,-27.37203077682585,-19.895461593002466,-30.459616207956543,-27.37203077682585
75.9605770111084,1.0378225000000043,1.6140005007057703,0.6769966411339852,-0.2320370728643433,1.6140005007057703,0.0,0.0,0.0,,0.0,-31.39271949999994,-49.34357452529081,-31.225087929137437,-35.332871813001844,-49.34357452529081
75.9605770111084,-3.7829084999999907,-0.17995038684042863,-1.0706607578344172,-0.054279521590564414,-0.17995038684042863,0.0,0.0,0.0,,0.0,-4.861869499999955,-54.15648832906342,-31.297030886614536,-36.92621785467735,-54.15648832906342
75.96130394935608,-6.453197500000016,-2.902479641144698,-4.14733818314913,-0.5865186629156522,-2.902479641144698,0.0,0.0,0.0,,0.0,-6.533604499999967,-48.39910769437807,-27.483500288463766,-38.20277497970577,-48.39910769437807
75.96130394935608,2.361747500000007,-3.846495967441542,-5.4429247362291235,-1.5047704620315716,-3.846495967441542,0.0,0.0,0.0,,0.0,-94.35767549999997,-43.17220677249624,-23.55681294233161,-38.1979447352842,-43.17220677249624
75.97491002082825,-2.133612499999998,-2.8413098706403455,-4.631686108860466,-2.2481557436473687,-2.8413098706403455,0.0,0.0,0.0,,0.0,-17.20727949999997,-38.60237227068612,-18.50188116758496,-35.56755246650004,-38.60237227068612
75.97491002082825,-10.686763500000012,-2.186888457303187,-4.110194582657374,-3.0121971567193446,-2.186888457303187,0.0,0.0,0.0,,0.0,21.571743500000025,-34.4123157985229,-19.75050510238877,-33.10552224418835,-34.4123157985229
75.99119186401367,-0.21878350000000069,-3.3856210570952863,-5.3473056485645145,-4.043547584169586,-3.3856210570952863,0.0,0.0,0.0,,0.0,-37.42517849999996,-37.84552061846214,-36.60030979337668,-34.627233867016386,-37.84552061846214
75.99119186401367,-4.9534974999999974,-5.6560332801009885,-7.352865549892553,-5.053323115585662,-5.6560332801009885,0.0,0.0,0.0,,0.0,-52.56429349999996,-49.57405725124686,-59.14794855676706,-37.291481292524736,-49.57405725124686
75.99125790596008,-6.909464500000013,-7.4666630323221606,-8.544334771874112,-5.762002935938947,-7.4666630323221606,0.0,0.0,0.0,,0.0,-61.61859149999998,-54.206435637057496,-61.732163770982666,-36.60367496715972,-54.206435637057496
75.99125790596008,-12.769888500000008,-7.966722576037623,-8.336884578498246,-5.775008165465286,-7.966722576037623,0.0,0.0,0.0,,0.0,7.793951500000048,-39.995573455378384,-38.390870896172885,-32.74127664559541,-39.995573455378384
76.00492596626282,-10.525948499999998,-6.648906872041563,-6.538885555788347,-4.856340176100368,-6.648906872041563,0.0,0.0,0.0,,0.0,-16.040430499999957,-19.921438489187338,-15.300514414227013,-28.152216124596183,-19.921438489187338
76.00492596626282,4.583247499999999,-3.243487820786256,-2.958573428057399,-3.274824425928755,-3.243487820786256,0.0,0.0,0.0,,0.0,-5.5425314999999955,-13.252498049166308,-13.355028085599598,-22.277084010526185,-13.252498049166308
76.02055788040161,-4.171858500000013,1.0295664343680473,1.3434690709398307,-0.9653828424379965,1.0295664343680473,0.0,0.0,0.0,,0.0,-33.77503649999994,-13.570206534740668,-17.225309046422225,-13.521480646280272,-13.570206534740668
76.02055788040161,-1.9765365000000088,3.4564588881144913,3.853442425088823,1.2637406235521904,3.4564588881144913,0.0,0.0,0.0,,0.0,31.086048500000004,-4.1002172508408865,-5.476726102826698,-9.264284782136189,-4.1002172508408865
76.0212459564209,5.076914499999987,2.7921900486469924,3.4246289157097993,1.6552346886586589,2.7921900486469924,0.0,0.0,0.0,,0.0,15.034398500000009,2.0357216696702256,7.041906430840578,-14.416819513011408,2.0357216696702256
76.0212459564209,-0.18138450000000716,1.4634351400580177,2.463178597731361,1.6732132087158982,1.4634351400580177,0.0,0.0,0.0,,0.0,-14.14056149999999,-22.01619563065535,-7.766404293911743,-25.255521866946577,-22.01619563065535
76.05135893821716,5.409765499999992,2.6989634901792408,3.9790444499073288,3.985379949459207,2.6989634901792408,0.0,0.0,0.0,,0.0,-88.13822249999998,-61.34856738588199,-37.968323727067514,-44.281080239647444,-61.34856738588199
76.05135893821716,-5.80245450000001,5.743372945302632,6.821381044641312,6.127469432037882,5.743372945302632,0.0,0.0,0.0,,0.0,-41.01174249999997,-67.57824859804207,-43.74598381086803,-55.31371298550606,-67.57824859804207
76.05197882652283,8.685917499999988,6.394176465114307,6.675652659651063,4.964459413714091,6.394176465114307,0.0,0.0,0.0,,0.0,-0.6133434999999849,-29.463966368929285,-18.21741179199452,-30.68880231366853,-29.463966368929285
76.05197882652283,7.029142500000006,2.654770668237202,2.1127249964744053,1.9443861811152376,2.654770668237202,0.0,0.0,0.0,,0.0,-14.611788499999989,9.965792401660938,5.41186172664106,3.3332189033553234,9.965792401660938
76.05274105072021,-9.1496645,-2.6281833540603223,-3.164992088081025,-1.2234796655409794,-2.6281833540603223,0.0,0.0,0.0,,0.0,9.910735500000044,16.098133493993785,5.939937442466192,4.9290167802441935,16.098133493993785
76.05274105072021,-12.253781500000002,-5.496766524924712,-5.156225527029584,-3.0977807095978296,-5.496766524924712,0.0,0.0,0.0,,0.0,31.172066500000028,1.6278415652779719,-4.420973959484951,-7.716140150474713,1.6278415652779719
76.06486701965332,-0.07666750000001343,-4.883691584286486,-3.6658785818652797,-2.1091303276859614,-4.883691584286486,0.0,0.0,0.0,,0.0,-1.6904344999999807,-7.141238927941032,-12.036249120049414,-5.620377338077713,-7.141238927941032
76.06486701965332,-8.764455499999997,-2.3504104445034613,-1.0435746720173094,0.3337033387250526,-2.3504104445034613,0.0,0.0,0.0,,0.0,-8.119322499999953,-7.370564854000225,-21.017008765075936,0.8036300110518527,-7.370564854000225
76.08064198493958,2.874113499999993,-0.179404631916752,0.5293381696409583,1.8881073089753417,-0.179404631916752,0.0,0.0,0.0,,0.0,-64.47961449999997,-10.993915664215717,-36.67522221511598,-2.817362085868753,-10.993915664215717
76.08064198493958,-6.1951435,-0.13445676637633056,-0.034011163703088765,1.1496454145675847,-0.13445676637633056,0.0,0.0,0.0,,0.0,48.08015450000005,-22.90476478020691,-53.38437237314143,-15.92808686483634,-22.90476478020691
76.08131384849548,-10.638145500000007,-2.85788877403355,-2.975303478669105,-2.2056147072082375,-2.85788877403355,0.0,0.0,0.0,,0.0,-12.487525499999947,-38.73164038878486,-62.68865906340245,-32.98730339954024,-38.73164038878486
76.08131384849548,-2.4215844999999945,-8.567949895593348,-8.664774185209694,-8.657830642667804,-8.567949895593348,0.0,0.0,0.0,,0.0,-157.9658945,-55.73605253371585,-64.86687873512406,-52.71748649683773,-55.73605253371585
76.09491991996765,-18.10672550000001,-17.415413249215465,-17.374208759838933,-18.013016745418522,-17.415413249215465,0.0,0.0,0.0,,0.0,-43.72317049999998,-76.92509090968052,-69.3838712347757,-77.2776378805193,-76.92509090968052
76.09491991996765,-41.107110500000005,-27.0910307582584,-26.497394605022397,-25.19052576554238,-27.0910307582584,0.0,0.0,0.0,,0.0,-22.772250499999984,-94.40722920380313,-74.80540656077754,-85.58593957135362,-94.40722920380313
76.11056900024414,-26.4803615,-31.161737866268005,-29.280029822678525,-26.721212509350813,-31.161737866268005,0.0,0.0,0.0,,0.0,-117.96392449999996,-77.41647294663427,-53.68475587517149,-57.89877049126652,-77.41647294663427
76.11056900024414,-25.840838500000004,-23.20696506329131,-19.584248656947068,-20.154218018289228,-23.20696506329131,0.0,0.0,0.0,,0.0,-67.22844149999997,-7.446938215492696,12.453522710539787,-7.299551341232864,-7.446938215492696
76.11132287979126,-5.45090350000001,-4.100866468537563,0.3268679477704959,-1.8127880719641738,-4.100866468537563,0.0,0.0,0.0,,0.0,114.77005050000002,78.7055820400145,90.37035999772421,53.21860247825623,78.7055820400145
76.11132287979126,6.909465499999982,16.2122012070787,19.135412852546672,17.39729739547304,16.2122012070787,0.0,0.0,0.0,,0.0,165.85334350000002,119.02992855337867,127.29369713912364,94.7553333564553,119.02992855337867
76.14129400253296,25.160177500000003,26.349504861917765,26.020242155057833,23.604026263048446,26.349504861917765,0.0,0.0,0.0,,0.0,60.42930350000006,96.1504648208622,116.1444451963083,84.1287171177262,96.1504648208622
76.14129400253296,26.592558499999996,23.20871800988303,19.928110909232178,19.531788382279107,23.20871800988303,0.0,0.0,0.0,,0.0,5.325617500000021,43.93836983421461,90.94592567441157,43.22128696103238,43.93836983421461
76.14196586608887,7.227356499999985,12.934903586013974,8.845172536748333,10.575907700424626,12.934903586013974,0.0,0.0,0.0,,0.0,2.7637865000000374,-2.3335898809687396,72.51522776947003,2.5495532392745597,-2.3335898809687396
76.14196586608887,-7.702323500000006,3.0424828712943928,0.5484712643978575,0.7434413582292065,3.0424828712943928,0.0,0.0,0.0,,0.0,29.818222500000047,-27.453790151856733,54.296767839607185,-23.682224180343198,-27.453790151856733
76.14281487464905,-0.5217154999999991,-3.6245320010282707,-2.9804784326095084,-4.564395989994736,-3.6245320010282707,0.0,0.0,0.0,,0.0,-62.07111949999995,-24.589869243239388,28.864591358245068,-19.822283602461788,-24.589869243239388
76.14281487464905,-9.228202500000009,-7.310655585066858,-3.0501274293259666,-5.9165011965568,-7.310655585066858,0.0,0.0,0.0,,0.0,-38.16193849999996,-0.5745732670290524,-2.839147194368495,-2.437033786466073,-0.5745732670290524
76.15497493743896,-10.406271500000003,-8.013696943644456,-0.9092210987922078,-5.901017963434423,-8.013696943644456,0.0,0.0,0.0,,0.0,14.873582500000055,16.07535994746147,-41.15240205101521,5.421956213900311,16.07535994746147
76.15497493743896,-16.535967499999998,-5.9773450573718065,2.0709001475106206,-4.905589971100494,-5.9773450573718065,0.0,0.0,0.0,,0.0,71.66396350000002,3.27990528327867,-80.22611449753721,2.6675774469883557,3.27990528327867
76.1707398891449,-4.1269795000000045,-3.0592611786316035,3.89207459629815,-3.557634857214742,-3.0592611786316035,0.0,0.0,0.0,,0.0,-88.30651749999998,-24.747540529958357,-97.3769784060827,-14.533051758454437,-24.747540529958357
76.1707398891449,-0.20382449999999608,-1.3835142908093265,3.249221519723334,-2.7245894981275174,-1.3835142908093265,0.0,0.0,0.0,,0.0,-43.536175499999956,-36.27323982065766,-73.67531353748717,-30.25488694932214,-36.27323982065766
76.17134594917297,-3.6183525000000145,-1.5451519014694135,0.325861339118348,-2.5174690784528493,-1.5451519014694135,0.0,0.0,0.0,,0.0,-31.142146499999967,-20.59908912241472,-22.50992883273005,-19.154516001844335,-20.59908912241472
76.17134594917297,-16.517267500000003,-3.094460222477479,-4.077111715915614,-2.826293299523716,-3.094460222477479,0.0,0.0,0.0,,0.0,39.58684150000005,6.474741311530955,18.579100707656263,2.210850205738165,6.474741311530955
76.18506097793579,-6.6962905000000035,-5.417909450810006,-8.871453664572376,-4.273187283152095,-5.417909450810006,0.0,0.0,0.0,,0.0,5.06756450000006,23.874104128004586,23.592672199680504,9.67666699721497,23.874104128004586
76.18506097793579,-0.3384604999999965,-6.818951533754003,-11.648674690684297,-4.95110909617306,-6.818951533754003,0.0,0.0,0.0,,0.0,11.178561500000058,21.81272853570256,-0.08215632046527332,7.078236407467102,21.81272853570256
76.20067405700684,-14.329426500000011,-4.6220034679156115,-9.412526473238678,-1.7623785934620124,-4.6220034679156115,0.0,0.0,0.0,,0.0,-45.16677149999998,5.507984478976725,-22.697396794088093,0.27657835468621494,5.507984478976725
76.20067405700684,-8.83551349999999,1.0902626986788433,-2.570651542959538,2.226304877201479,1.0902626986788433,0.0,0.0,0.0,,0.0,55.50385550000004,-11.034995438382685,-22.372641317962234,-5.615634244357289,-11.034995438382685
76.20135998725891,5.518222500000007,5.467202018268963,3.314009314786426,2.6786779952007658,5.467202018268963,0.0,0.0,0.0,,0.0,-27.69395849999995,-15.330322871718721,-1.2471585730617925,-4.367592339596873,-15.330322871718721
76.20135998725891,5.9258714999999995,4.243422647617805,3.5262078696722328,1.215528602405156,4.243422647617805,0.0,0.0,0.0,,0.0,-49.837906499999974,-3.748932408072978,26.16712834607282,0.9716948037386015,-3.748932408072978
76.23168206214905,-4.183077499999996,-0.011656930309194402,0.4714590630509778,-0.05334116915633128,-0.011656930309194402,0.0,0.0,0.0,,0.0,-6.96743349999997,13.798519742480057,47.436275553349134,8.684255389437634,13.798519742480057
76.23168206214905,-13.349572499999994,-0.9986841315321475,0.13656123733515968,-0.6513229735306896,-0.9986841315321475,0.0,0.0,0.0,,0.0,70.46719550000006,17.452059419546178,49.42430786272709,12.805374111801541,17.452059419546178
76.2320990562439,-0.6675715000000082,2.3642050405756847,3.3982015923573146,0.5420338541919083,2.3642050405756847,0.0,0.0,0.0,,0.0,-7.745332499999961,-1.6665078967517863,22.46070564968357,1.4470412202581913,-1.6665078967517863
76.2320990562439,8.106233500000002,4.496532478601,5.016865408652336,2.0119865638767442,4.496532478601,0.0,0.0,0.0,,0.0,-67.43039549999997,-24.862038067179206,-19.196307322013013,-12.47766394985609,-24.862038067179206
76.23287987709045,1.595067499999999,1.7260927089303972,2.1662881207339977,1.1136989820392027,1.7260927089303972,0.0,0.0,0.0,,0.0,-61.225901499999964,-26.057849823428647,-41.493191120015524,-7.513993762598026,-26.057849823428647
76.23287987709045,-20.990188500000002,-2.2591493483301237,-1.2713824383695265,-0.7223800076872339,-2.2591493483301237,0.0,0.0,0.0,,0.0,57.52714150000003,-6.8112681723304656,-30.432045306326536,4.3675038797717,-6.8112681723304656
76.24579882621765,-2.365486500000003,-2.5429863619425435,-1.197298221013508,-1.0961280546738412,-2.5429863619425435,0.0,0.0,0.0,,0.0,3.9156755000000203,8.210441491457486,-7.2868808960992215,3.577241191446353,8.210441491457486
76.24579882621765,3.3416004999999984,-0.48680485500839277,0.3035971648834761,-0.8057779938856637,-0.48680485500839277,0.0,0.0,0.0,,0.0,-42.687217499999974,8.595978267173454,4.457064338812251,-2.2578317267922996,8.595978267173454
76.24634003639221,-4.545848500000005,-0.5854964338382045,-0.8227460657059866,-1.162112659279419,-0.5854964338382045,0.0,0.0,0.0,,0.0,-13.753481499999964,7.268873640473663,6.2825428698142325,-1.496951551460155,7.268873640473663
76.26017904281616,-15.750588499999992,-2.7631898495058396,-3.6069387714951393,-1.4523952438347498,-2.7631898495058396,0.0,0.0,0.0,,0.0,67.69031950000004,11.23714411120455,8.017528635089201,0.9003404608985828,11.23714411120455
76.26017904281616,-5.428464500000018,-2.8880236745908867,-3.7841567220825816,-0.862429033386012,-2.8880236745908867,0.0,0.0,0.0,,0.0,-4.280315499999972,8.957834455242537,5.080222805936309,0.041587220383032766,8.957834455242537
76.2757818698883,1.0640014999999892,0.4427500633007715,-0.3406301475804254,0.22930967738362676,0.4427500633007715,0.0,0.0,0.0,,0.0,-34.113497499999994,-5.5127824083291594,-9.527147031371506,-2.308538136451329,-5.5127824083291594
76.2757818698883,6.53547549999999,4.189296942134485,3.575246508176106,1.4123590419137255,4.189296942134485,0.0,0.0,0.0,,0.0,-50.64759449999997,-17.10777720834747,-23.697394728119875,-7.4608814631303995,-17.10777720834747
76.27633285522461,-13.77592150000001,5.514566920319994,5.358942399212574,2.2616782657748526,5.514566920319994,0.0,0.0,0.0,,0.0,44.274805500000014,-10.25317864566238,-17.334938032354135,-9.77370553856598,-10.25317864566238
76.27633285522461,5.937091500000008,4.4732562180310405,4.919098050733313,2.321274923466382,4.4732562180310405,0.0,0.0,0.0,,0.0,13.461770500000057,9.170723602784443,8.975037942512312,0.7733824090741787,9.170723602784443
76.28985285758972,3.9474644999999953,2.318649094601529,3.0807927897898484,1.8751450891320358,2.318649094601529,0.0,0.0,0.0,,0.0,-33.89658349999996,22.459164943690357,31.376483995009508,12.582588563209722,22.459164943690357
76.28985285758972,-3.091026499999998,0.2536022678849818,0.9373066888526771,1.2977189190629181,0.2536022678849818,0.0,0.0,0.0,,0.0,13.787141500000018,19.025654888307425,29.303295017310084,10.231320197494723,19.025654888307425
76.30565190315247,-13.49168850000001,-0.3442883525157564,0.06591839327350224,0.9103020158021035,-0.3442883525157564,0.0,0.0,0.0,,0.0,57.484132500000044,2.22246509358321,5.736964999553823,0.35618837065602144,2.22246509358321
76.30565190315247,-0.4805765000000122,0.9406586636918032,1.0782403827064808,1.1777259759289287,0.9406586636918032,0.0,0.0,0.0,,0.0,-40.280592499999955,-17.250771282246955,-20.37585417057245,-9.439464677581926,-17.250771282246955
76.30650496482849,3.6333134999999857,2.310968286430065,2.2504494741104137,1.741612971237225,2.310968286430065,0.0,0.0,0.0,,0.0,-48.57569049999995,-27.820425021568422,-33.07659900933769,-14.670044677823846,-27.820425021568422
76.30650496482849,-0.7386295000000018,1.7558288543773197,1.6665039247732774,1.9661674467682504,1.7558288543773197,0.0,0.0,0.0,,0.0,-43.90829549999995,-22.71213231122087,-29.123865239006932,-7.702812609693251,-22.71213231122087
76.31990385055542,-11.408564500000011,0.2643340244722482,0.3793961565984314,2.1341594680025473,0.2643340244722482,0.0,0.0,0.0,,0.0,45.87548350000003,-6.256249562275783,-14.65019797593488,2.3052544723011126,-6.256249562275783
76.31990385055542,-2.904031500000002,0.8278180008556603,1.2466062117214218,2.3561799864749218,0.8278180008556603,0.0,0.0,0.0,,0.0,2.0214165000000435,6.322834428829179,-0.35615551867818596,1.2943291935936063,6.322834428829179
76.33559703826904,5.521962500000001,3.6910028247982516,4.23217418496499,2.31756377978249,3.6910028247982516,0.0,0.0,0.0,,0.0,-38.758452499999976,2.0901832417956285,1.7233212285966526,-5.614303566117203,2.0901832417956285
76.33559703826904,4.153159499999987,4.97391629287562,5.371519020805759,2.5057775445319246,4.97391629287562,0.0,0.0,0.0,,0.0,-9.534874499999944,-14.23606101634468,-11.313659060397402,-10.219335756781161,-14.23606101634468
76.3363618850708,-12.392158499999994,1.479213112183501,1.7056521914859935,1.831769098089433,1.479213112183501,0.0,0.0,0.0,,0.0,12.912004500000023,-24.081596872333595,-25.47732594088624,-12.2682158493798,-24.081596872333595
76.3363618850708,-6.8234475000000145,-4.942481955554359,-4.695703694679604,-1.8898140609248408,-4.942481955554359,0.0,0.0,0.0,,0.0,-19.60268549999995,-17.76580829405958,-23.807619043082994,-12.516194308321573,-17.76580829405958
76.35219192504883,-6.1951435,-9.460509459865005,-9.147153465750872,-5.755580888722203,-9.460509459865005,0.0,0.0,0.0,,0.0,-42.57689049999999,-6.281482844025338,-9.137193402486796,-11.840525569468577,-6.281482844025338
76.35219192504883,-14.314466500000009,-9.55975014579591,-9.459168121005238,-5.512565764488039,-9.55975014579591,0.0,0.0,0.0,,0.0,12.975583500000027,-5.256239845211337,-0.5637443346418172,-9.514999043552628,-5.256239845211337
76.36562085151672,-19.337152500000002,-6.829969435972054,-7.142537521262802,-3.210547446378011,-6.829969435972054,0.0,0.0,0.0,,0.0,-1.677344499999947,-16.693556369854164,-9.762335991229376,-8.959175988137039,-16.693556369854164
76.36562085151672,-1.1874175000000093,-4.046330382898553,-4.424336785319649,-2.2848416354319876,-4.046330382898553,0.0,0.0,0.0,,0.0,-19.75228149999998,-32.679853070716185,-30.78472083491232,-17.29634385006052,-32.679853070716185
76.36646699905396,-5.477083499999992,-2.28074639038504,-2.012673106957888,-2.382031462051812,-2.28074639038504,0.0,0.0,0.0,,0.0,-58.890334499999994,-44.30794412769275,-47.3038177654482,-25.84028429647997,-44.30794412769275
76.36646699905396,-2.552481499999999,-1.637882456843832,-0.23603783960727198,-2.2453638495836854,-1.637882456843832,0.0,0.0,0.0,,0.0,-61.71395849999999,-42.10795940445786,-43.63184220712456,-21.267065468813616,-42.10795940445786
76.37996888160706,-14.755774500000001,-2.9490199946801203,-0.5358143497838852,-2.6620949777975356,-2.9490199946801203,0.0,0.0,0.0,,0.0,11.718976500000053,-24.56679309513519,-19.447249563386023,-12.189239224366112,-24.56679309513519
76.37996888160706,-6.72620950000001,-6.54046571912769,-3.76696639735966,-4.919401716668174,-6.54046571912769,0.0,0.0,0.0,,0.0,20.38806450000004,-7.843963363591275,4.78540062836743,-10.286544492031398,-7.843963363591275
76.39566802978516,-10.361392499999994,-10.206696370465275,-7.800243594798985,-6.878399891145545,-10.206696370465275,0.0,0.0,0.0,,0.0,-33.548772499999984,-8.131548113395922,10.174272534793374,-12.949610335980323,-8.131548113395922
76.39566802978516,-11.1804305,-10.59631536336445,-8.753185929024907,-5.94353435827875,-10.59631536336445,0.0,0.0,0.0,,0.0,-52.30811049999994,-18.57517083279717,0.770264762952916,-17.145120187534857,-18.57517083279717
76.3962709903717,-20.747094500000003,-6.75004789660221,-4.986288731768334,-3.3905973618880347,-6.75004789660221,0.0,0.0,0.0,,0.0,49.45082750000006,-22.016921975389117,-9.29017085945917,-18.49035447346942,-22.016921975389117
76.3962709903717,-0.11406650000000695,-1.2967592521264844,0.908659642573904,-0.7215303451573144,-1.2967592521264844,0.0,0.0,0.0,,0.0,-2.0662944999999695,-14.953669119491245,-13.893442804936889,-11.371767944365056,-14.953669119491245
76.42628884315491,2.4739444999999876,2.0621476826983614,4.6345258292611184,0.9914793872868982,2.0621476826983614,0.0,0.0,0.0,,0.0,-33.17104249999994,-1.8700257007319592,-8.30363664416185,0.6809084657970939,-1.8700257007319592
76.42628884315491,2.137353499999989,2.0393531334746924,4.4984866466897095,0.18227863453519674,2.0393531334746924,0.0,0.0,0.0,,0.0,-5.458383499999968,16.802481444730358,13.419454101036479,12.409728174565998,16.802481444730358
76.42700099945068,-14.243408500000015,0.4700942884267378,2.3918467434374873,-1.5258408254783171,0.4700942884267378,0.0,0.0,0.0,,0.0,116.28283950000002,35.44350947886189,41.24256078595932,20.774200437856262,35.44350947886189
76.42700099945068,0.5179765000000032,-0.42309238625611817,0.6322711679846766,-1.6378645170159303,-0.42309238625611817,0.0,0.0,0.0,,0.0,43.65024250000005,40.53781113527957,51.277619342339065,22.87897289549682,40.53781113527957
76.42777585983276,0.8096884999999929,-0.28211634498236016,-0.2142307542163437,-0.7384881378367222,-0.28211634498236016,0.0,0.0,0.0,,0.0,-0.5965134999999577,29.782765993483384,35.86020825066443,20.20719979527879,29.782765993483384
76.42777585983276,2.889073499999995,0.5972760590244448,0.08508068067424734,0.162247858318747,0.5972760590244448,0.0,0.0,0.0,,0.0,7.642485500000021,17.42828759011374,12.914671537148987,15.3399763733147,17.42828759011374
76.43989205360413,-14.830572500000017,2.5256887288578076,2.1232964366316125,0.863053242448568,2.5256887288578076,0.0,0.0,0.0,,0.0,92.26894150000004,13.39238904639643,-0.5578523701103428,10.510173178293565,13.39238904639643
76.43989205360413,5.166672500000004,4.479313797629176,4.416394014558977,1.1528334408435132,4.479313797629176,0.0,0.0,0.0,,0.0,11.54320150000001,12.875386454256514,-6.2266377699099245,8.778500175180433,12.875386454256514
76.46265602111816,8.966410499999995,3.7432263018022764,3.6990755019390837,1.194407512506573,3.7432263018022764,0.0,0.0,0.0,,0.0,-12.220122499999945,10.711481286501414,-9.60743696919954,9.2479779894567,10.711481286501414
76.46265602111816,0.7648094999999842,0.5018352942348311,0.2803838163284177,1.0097001615344925,0.5018352942348311,0.0,0.0,0.0,,0.0,1.2883955000000356,11.03717448572614,-5.547409735148715,8.295416362523458,11.03717448572614
76.46281790733337,-18.9108035,-0.6951933240241944,-0.9363111666823585,1.0114094200134358,-0.6951933240241944,0.0,0.0,0.0,,0.0,107.67358950000002,18.18051133511513,10.607158885261224,6.841033510826868,18.18051133511513
76.46281790733337,3.5248564999999985,2.3689057707710264,2.104680361054855,2.1710781052167643,2.3689057707710264,0.0,0.0,0.0,,0.0,20.72465550000004,26.6105198232378,26.397762622273287,9.19899520867599,26.6105198232378
76.47017502784729,14.669757500000003,5.664028764334072,4.9936366859194425,3.404186865787981,5.664028764334072,0.0,0.0,0.0,,0.0,-22.916236499999968,22.962932108855387,19.262766576615725,10.269843376372927,22.962932108855387
76.47017502784729,1.7259645000000035,5.378243298270435,3.9592798099145656,2.859317539198745,5.378243298270435,0.0,0.0,0.0,,0.0,40.28059250000001,0.34442167170034743,-14.800780910420256,0.5448664086815702,0.34442167170034743
76.48563599586487,-15.2756215,3.382413581644028,1.4483752884042143,1.9044117890711725,3.382413581644028,0.0,0.0,0.0,,0.0,46.773059500000045,-25.33630226929698,-45.56698350494469,-10.647024409451493,-25.33630226929698
76.48563599586487,10.451150499999983,3.018971795593284,1.3368034070373491,2.5149553769914665,3.018971795593284,0.0,0.0,0.0,,0.0,-58.45650649999999,-25.557414246503466,-37.99289530901814,-8.810126751155588,-25.557414246503466
76.4862928390503,10.727903499999996,4.514821633923322,3.646843581346481,3.8257349894156696,4.514821633923322,0.0,0.0,0.0,,0.0,-2.5711804999999686,1.455006248287671,0.5270043398804383,-2.180414271950074,1.455006248287671
76.4862928390503,-3.7380295000000103,6.550185969627904,6.097186762624174,4.621573136946131,6.550185969627904,0.0,0.0,0.0,,0.0,38.672435500000006,20.093070109172636,23.60591030046397,-2.4606915368578326,20.093070109172636
76.51633286476135,-0.25992250000001604,7.70841709759965,6.667114473272478,4.689062575384335,7.70841709759965,0.0,0.0,0.0,,0.0,81.59526750000003,5.633834350769861,6.065693738060361,-5.672222803233935,5.633834350769861
76.51633286476135,12.014428500000008,6.208574602653691,4.288807727303562,3.917911817717994,6.208574602653691,0.0,0.0,0.0,,0.0,-32.35948449999995,-18.17066094479838,-21.658635129637336,-8.744623384048436,-18.17066094479838
76.51703095436096,0.9929434999999955,2.1146384633983493,0.27996679944675673,2.5166685255696906,2.1146384633983493,0.0,0.0,0.0,,0.0,-36.49207349999995,-15.1931305288125,-18.83642242669927,-9.913300567366162,-15.1931305288125
76.51703095436096,-3.3528195000000096,-1.5709956660171054,-2.3998479594452657,0.816215653561262,-1.5709956660171054,0.0,0.0,0.0,,0.0,27.104925500000036,7.962898744583772,7.193585053366052,-2.3005803957940185,7.962898744583772
76.51775193214417,-13.551527499999992,-2.7065338434010724,-2.9294606947788413,-0.613061857697142,-2.7065338434010724,0.0,0.0,0.0,,0.0,95.33565950000002,13.726363729560346,16.07915934721058,5.099929847109182,13.726363729560346
76.51775193214417,3.6407925000000034,-2.352827211551456,-2.9607577267380614,-1.203801611219616,-2.352827211551456,0.0,0.0,0.0,,0.0,-10.59326649999997,-8.992833748601804,-4.09949018883773,-4.3299818579010925,-8.992833748601804
76.52990293502808,-2.990049499999998,-1.7808637309438096,-2.8117651418716765,-1.1311916699530071,-1.7808637309438096,0.0,0.0,0.0,,0.0,-62.97804549999995,-31.108328449117447,-24.09804147337505,-17.71908529671075,-31.108328449117447
76.52990293502808,-0.9779834999999935,-0.5932103830690917,-1.16091678304596,-0.7130670895358022,-0.5932103830690917,0.0,0.0,0.0,,0.0,-8.397945499999992,-28.50203474616025,-21.442945722746703,-14.090638957063303,-28.50203474616025
76.54564785957336,-9.430157500000007,0.8344650650711078,1.2648448811372672,-0.3778566714081111,0.8344650650711078,0.0,0.0,0.0,,0.0,71.68079250000005,-12.490555745265151,-8.150470819676434,-4.613438315347417,-12.490555745265151
76.54564785957336,4.272836499999983,0.5278153890398335,1.6483210373079475,-0.5405115293398699,0.5278153890398335,0.0,0.0,0.0,,0.0,-13.719822499999964,-5.861831291722239,-2.7187200036389525,-6.640439644340778,-5.861831291722239
76.54636192321777,0.4282184999999856,-1.8979521626545206,-0.5030857755758427,-1.0359623347507168,-1.8979521626545206,0.0,0.0,0.0,,0.0,-21.042546499999958,-10.81701764399404,-3.138138214599824,-13.67188691922693,-10.81701764399404
76.54636192321777,-6.520515500000016,-3.9310179827853746,-2.34796651157165,-1.6387897361184984,-3.9310179827853746,0.0,0.0,0.0,,0.0,-11.550680499999942,-15.107934674119642,-0.17714158164842253,-16.08397742619311,-15.107934674119642
76.5601258277893,-11.5992995,-3.4309653149523416,-1.7553991441998467,-1.8224332816009656,-3.4309653149523416,0.0,0.0,0.0,,0.0,63.61008850000002,-15.463992581345614,2.485240760872948,-16.34448034768949,-15.463992581345614
76.5601258277893,1.5464484999999968,-1.1542699743092724,0.3911484241134795,-1.113903144603711,-1.1542699743092724,0.0,0.0,0.0,,0.0,-2.7544364999999402,-18.79009735542629,-4.5477309288651195,-17.37375298190625,-18.79009735542629
76.57565593719482,3.3116814999999917,0.9787678149775104,2.433127459659798,0.13166217689882032,0.9787678149775104,0.0,0.0,0.0,,0.0,-65.69695249999995,-26.442160430843284,-19.255717800891635,-18.35693932621968,-26.442160430843284
76.57565593719482,1.8007624999999905,2.2705439626811197,4.042088066543666,1.5270172311499592,2.2705439626811197,0.0,0.0,0.0,,0.0,-5.914651499999991,-30.201686632838868,-28.295621405975705,-19.49947834356475,-30.201686632838868
76.57627201080322,-6.494335500000005,2.8540813993324456,5.136486402901651,2.211256935465293,2.8540813993324456,0.0,0.0,0.0,,0.0,71.08240850000004,-23.15329546362995,-21.910915785605756,-19.8698562056482,-23.15329546362995
76.57627201080322,5.78001549999999,2.355839065773176,4.804315539819472,1.3638463379657149,2.355839065773176,0.0,0.0,0.0,,0.0,-51.92664049999996,-9.601731569527535,-6.359055348726617,-17.103337341144602,-9.601731569527535
76.5899109840393,1.950358499999993,0.19409552624781412,2.319868611186517,-0.4426105862658962,0.19409552624781412,0.0,0.0,0.0,,0.0,15.597252500000025,-3.222891351252911,0.1675498114041165,-14.095323538493057,-3.222891351252911
76.5899109840393,-2.0139355000000023,-3.12266098158714,-1.3995506627841054,-2.4922284519965836,-3.12266098158714,0.0,0.0,0.0,,0.0,6.527995500000031,-11.315988430605868,-10.260832101984025,-15.404567416197215,-11.315988430605868
76.6056158542633,-15.5785525,-5.5486797829287084,-3.826353029695771,-3.70661555485895,-5.5486797829287084,0.0,0.0,0.0,,0.0,25.306033500000012,-22.234568815111672,-22.333149229242448,-18.252974634432753,-22.234568815111672
76.6056158542633,1.1201005000000066,-4.780689883260509,-2.6090689906159152,-2.9913230171046767,-4.780689883260509,0.0,0.0,0.0,,0.0,-1.1687184999999545,-19.615796904178843,-18.796847361793937,-18.500341052883385,-19.615796904178843
76.60631203651428,-3.734289500000017,-0.7061051799151148,1.8659611583975426,-0.9624502983990436,-0.7061051799151148,0.0,0.0,0.0,,0.0,-32.486640499999965,-7.028135133316169,-7.3339084103696335,-17.581753405994146,-7.028135133316169
76.60631203651428,9.452597499999996,3.7460891949847235,6.131922595171833,1.4740439272383508,3.7460891949847235,0.0,0.0,0.0,,0.0,23.204209500000047,-2.9180187665895705,-8.205241846560689,-17.510628982551967,-2.9180187665895705
76.61996388435364,-2.960130499999991,5.591945648064667,7.317999422742645,3.3628831894373596,5.591945648064667,0.0,0.0,0.0,,0.0,56.24248550000004,-12.621833761631537,-21.99497961569982,-18.603431921576327,-12.621833761631537
76.61996388435364,4.422432499999985,5.168794457306012,6.37882300380946,3.6716256102268803,5.168794457306012,0.0,0.0,0.0,,0.0,-32.02289349999995,-22.92572530365425,-30.58807239199705,-20.7285866257683,-22.92572530365425
76.63564991950989,11.427264500000007,4.676397334111908,5.758888048469089,2.8414055177653696,4.676397334111908,0.0,0.0,0.0,,0.0,-48.661708499999975,-25.257792590287604,-27.351219143968258,-23.29114687465057,-25.257792590287604
76.63564991950989,1.1014004999999827,4.31380848228205,5.423847897569548,1.626415995475831,4.31380848228205,0.0,0.0,0.0,,0.0,26.51028150000002,-26.190333549815797,-24.960214055543407,-25.923120593501178,-26.190333549815797
76.63632893562317,-0.3235014999999919,2.6500354045089556,3.756916448048532,0.515216052408495,2.6500354045089556,0.0,0.0,0.0,,0.0,-11.120592499999987,-30.689790826731485,-30.176055751961925,-26.140798311396573,-30.689790826731485
76.63632893562317,0.5591154999999901,0.15411913853312176,1.3217976844952295,0.13654640944632965,0.15411913853312176,0.0,0.0,0.0,,0.0,-5.017075499999976,-30.95218126246118,-32.024131738504906,-21.651292788635686,-30.95218126246118
76.64996695518494,0.21504450000000475,-1.0289133072960028,0.2551931422207738,0.16457200674704467,-1.0289133072960028,0.0,0.0,0.0,,0.0,-28.948695499999985,-18.639307048492178,-20.485133085755074,-14.289488803708705,-18.639307048492178
76.64996695518494,2.6609394999999836,-0.8025419249151762,0.408451685904216,0.0773167587989362,-0.8025419249151762,0.0,0.0,0.0,,0.0,-17.949649499999964,0.569969588444414,-3.091003662499995,-6.162696567294101,0.569969588444414
76.6656768321991,-8.697137499999997,-1.0369153344257285,-0.17977547207178257,0.10532136160600711,-1.0369153344257285,0.0,0.0,0.0,,0.0,97.77033450000005,10.565394504968772,3.7688401243411516,-0.7188305437771243,10.565394504968772
76.6656768321991,2.7170375000000035,-1.4489602906188055,-0.9818940574898201,-0.04982508408201016,-1.4489602906188055,0.0,0.0,0.0,,0.0,12.085486500000059,3.2049744592994327,-4.042247928981137,-1.494695531201496,3.2049744592994327
76.6663110256195,-0.06544750000000477,0.285847213033449,0.5184241138061044,-0.18421639581849966,0.285847213033449,0.0,0.0,0.0,,0.0,-61.07069649999994,-10.948513931954471,-13.503834005648967,-6.445192068508398,-10.948513931954471
76.6663110256195,6.165225499999991,3.291322054655527,3.321397025147444,1.212332486817623,3.291322054655527,0.0,0.0,0.0,,0.0,11.666618500000027,-16.768056362373112,-13.972770996181055,-12.638064119632148,-16.768056362373112
76.6799829006195,-2.6945975000000146,2.91478537853629,2.646842482299723,2.071304005899689,2.91478537853629,0.0,0.0,0.0,,0.0,43.12291650000003,-14.48881528234402,-11.431755074684464,-17.235697670220475,-14.48881528234402
76.6799829006195,0.7199315000000013,-2.415031112858749,-2.837635500275496,-1.3420648238145454,-2.415031112858749,0.0,0.0,0.0,,0.0,-16.113358499999947,-14.82150975414536,-14.251431124369397,-16.945714078302995,-14.82150975414536
76.69566488265991,-6.662631500000003,-7.7343315643999775,-7.822826309461442,-5.170854933211739,-7.7343315643999775,0.0,0.0,0.0,,0.0,-45.512712499999964,-19.094676809210704,-16.30768036962493,-13.353993807761707,-19.094676809210704
76.69566488265991,-5.922131500000006,-7.701647784985823,-7.0666470286576475,-3.9170627495190917,-7.701647784985823,0.0,0.0,0.0,,0.0,-5.413504499999988,-17.290134659813205,-7.61805073856392,-9.061471581328737,-17.290134659813205
76.69632291793823,-8.087533500000006,-3.0692159958225695,-1.7793435201903234,-0.16687883609652074,-3.0692159958225695,0.0,0.0,0.0,,0.0,37.20265550000005,-5.409902850996716,6.81263857837246,-4.451755329410934,-5.409902850996716
76.69632291793823,3.8577075000000036,1.548711295323531,3.0028398613475713,2.291572877815949,1.548711295323531,0.0,0.0,0.0,,0.0,19.692443500000024,7.13074002555486,12.453713733926609,-1.0880149417007425,7.13074002555486
76.71007490158081,6.894505500000008,3.51479923229968,4.6102850719704165,3.1872735842504345,3.51479923229968,0.0,0.0,0.0,,0.0,-22.295413499999995,12.470848261773433,8.670115252631854,2.181781137698781,12.470848261773433
76.71007490158081,3.7230705000000057,3.123424828330728,3.612774437811446,2.6296798761586007,3.123424828330728,0.0,0.0,0.0,,0.0,23.686656500000026,16.167469788699446,10.376127405080073,7.898564268214716,16.167469788699446
76.72561693191528,-2.731996500000008,1.0965222251877473,0.9679795922978072,1.2170438611049517,1.0965222251877473,0.0,0.0,0.0,,0.0,60.96597950000006,23.456271609201735,22.511920402058013,10.861284545637167,23.456271609201735
76.72561693191528,-3.6258325000000013,-1.722008842367318,-2.3756291679634014,-0.5083531710203255,-1.722008842367318,0.0,0.0,0.0,,0.0,29.39748350000002,23.287671166517733,27.718822621865904,8.706512013209533,23.287671166517733
76.72631502151489,7.9715975000000014,-3.05774153211866,-4.016655530092599,-1.4106998639011556,-3.05774153211866,0.0,0.0,0.0,,0.0,-28.746740499999987,4.333734936483523,12.002701068668223,4.296856769900446,4.333734936483523
76.72631502151489,-4.198037499999998,-0.7856999507930276,-1.6492608693529622,0.25031141671148055,-0.7856999507930276,0.0,0.0,0.0,,0.0,-16.26669449999997,-17.258886386977903,-8.27208477451632,-8.922240295552381,-17.258886386977903
76.73998785018921,-5.59675949999999,3.285681522621352,2.904340707469305,2.491567462206783,3.285681522621352,0.0,0.0,0.0,,0.0,36.237760500000036,-9.917240852372672,-4.689026747560089,-15.852349793938016,-9.917240852372672
76.73998785018921,12.882085499999988,4.203970042592896,4.3228715275247565,2.3387117507868025,4.203970042592896,0.0,0.0,0.0,,0.0,-7.496629499999983,27.184003901272117,20.79534088048137,14.993515176522875,27.184003901272117
76.75559401512146,5.892212499999999,0.6435766968247459,0.8415186577720404,0.9745810472265551,0.6435766968247459,0.0,0.0,0.0,,0.0,50.75605250000001,52.67929898061347,34.57494142740539,48.96691620645041,52.67929898061347
76.75559401512146,-8.315667500000018,-2.371649492432924,-2.5676003127700415,0.1967338045621986,-2.371649492432924,0.0,0.0,0.0,,0.0,17.93095050000005,33.61422531022882,17.25006252834132,31.01280248843133,33.61422531022882
76.75645303726196,-2.088733500000018,-0.6039871950357225,-1.330196097752212,-9.920197250762883e-05,-0.6039871950357225,0.0,0.0,0.0,,0.0,23.937229500000058,-9.375520712211095,-10.045481492016984,-4.456973613649608,-9.375520712211095
76.75645303726196,6.180185499999993,3.2064189182760363,2.195881962019997,0.41187944931143133,3.2064189182760363,0.0,0.0,0.0,,0.0,-37.31859149999997,-27.629192539630537,-15.603241501742648,-5.730957174413183,-27.629192539630537
76.78631496429443,7.395652499999983,4.055362388200429,3.2791561826505657,1.145783787858707,4.055362388200429,0.0,0.0,0.0,,0.0,-60.27035749999999,-4.617960823946418,4.226419710209279,11.195025937817533,-4.617960823946418
76.78631496429443,6.333520499999992,2.2275378989411956,2.0918503169424807,1.4926272343356735,2.2275378989411956,0.0,0.0,0.0,,0.0,41.19686850000005,30.411391319300385,27.12927942728528,22.243892889142334,30.411391319300385
76.78701305389404,-8.842993500000006,1.7955463011618777,2.1326065511548595,1.5205493240405672,1.7955463011618777,0.0,0.0,0.0,,0.0,73.96587150000005,44.738939838448616,34.77095736398806,28.065589586060867,44.738939838448616
76.78701305389404,7.7659024999999815,3.4870817454738727,3.5430160787110645,1.9466387866086132,3.4870817454738727,0.0,0.0,0.0,,0.0,10.757822500000032,37.18540533108797,29.82461947284237,29.266304741805705,37.18540533108797
76.78779196739197,10.372612500000002,3.8147072381531313,2.9181063579285373,2.39296560976989,3.8147072381531313,0.0,0.0,0.0,,0.0,-26.136290499999973,26.530588216031756,24.731597470899786,27.053470726174336,26.530588216031756
76.78779196739197,3.6557525000000055,1.6329187150794442,-0.09796549982599467,1.3185124472963712,1.6329187150794442,0.0,0.0,0.0,,0.0,16.704263500000025,23.156693865685902,25.831879212457824,24.794664112265053,23.156693865685902
76.79996085166931,-7.814520500000015,0.8223228289888243,-1.041004581294231,0.30680849451293685,0.8223228289888243,0.0,0.0,0.0,,0.0,58.26951150000002,24.807138599924045,30.76167952800583,25.000374917155266,24.807138599924045
76.79996085166931,4.2803155,3.8819196208486604,2.3353252567713656,2.718213665278272,3.8819196208486604,0.0,0.0,0.0,,0.0,-7.57142749999997,29.628249050634444,34.85099367600507,29.60533545768373,29.628249050634444
76.81559801101685,17.818753499999985,6.771322142980077,5.357562406051689,5.189810011340137,6.771322142980077,0.0,0.0,0.0,,0.0,-18.473235499999987,38.73168910671858,35.8185735911295,37.26149614572706,38.73168910671858
76.81559801101685,0.9443254999999908,4.181935399191261,2.518270023469039,2.4124647731215894,4.181935399191261,0.0,0.0,0.0,,0.0,41.13702950000004,49.39594518770723,36.288046642994686,46.0115731873477,49.39594518770723
76.8162899017334,-5.155451499999998,-2.4145647558681924,-4.409839962423309,-1.9472622035939757,-2.4145647558681924,0.0,0.0,0.0,,0.0,68.75993050000005,55.94141622262556,42.20453098537624,52.76720469759564,55.94141622262556
76.8162899017334,-6.988002499999993,-6.3301729779452245,-8.480158257904028,-2.6037339069118004,-6.3301729779452245,0.0,0.0,0.0,,0.0,29.393743500000028,55.88389164259865,53.36898306341418,54.332022460056244,55.88389164259865
76.82991290092468,-1.0789604999999938,-4.446418501134026,-6.661369469286617,-1.041378042939731,-4.446418501134026,0.0,0.0,0.0,,0.0,-23.79885349999995,50.07878700793631,58.16390309088529,52.32274158354493,50.07878700793631
76.82991290092468,7.253536499999996,-0.29061458786022953,-2.6138348115035104,0.47668381783545377,-0.29061458786022953,0.0,0.0,0.0,,0.0,24.33365950000001,40.427895272705996,46.76959539326457,49.230888922183226,40.427895272705996
76.8455638885498,-7.885578500000008,2.003750229602657,-0.37104423188106406,1.6349363941407107,2.003750229602657,0.0,0.0,0.0,,0.0,51.440454500000044,31.565780347152632,28.415287634217226,47.480911475388936,31.565780347152632
76.8455638885498,3.6333134999999857,2.5339790591903193,0.3538525189785129,1.9305909051382857,2.5339790591903193,0.0,0.0,0.0,,0.0,-30.612950499999954,30.180657519770627,22.319752799336616,49.65411468344939,30.180657519770627
76.84623503684998,8.704617499999983,2.869986853198618,1.0470508995968781,1.559242826198299,2.869986853198618,0.0,0.0,0.0,,0.0,-6.786048499999993,38.27473313103715,33.081410739831284,54.6529678803983,38.27473313103715
76.84623503684998,4.725363499999986,2.6253717846462856,1.04960741911182,1.1512177754024429,2.6253717846462856,0.0,0.0,0.0,,0.0,-3.9100654999999733,50.41116381331399,49.095363362197766,60.538088139362586,50.41116381331399
76.85987591743469,-3.0536275000000046,1.3514281837795195,-0.21339120934937972,0.8105177516111015,1.3514281837795195,0.0,0.0,0.0,,0.0,84.66198550000001,60.274602698451936,61.83354514849317,65.81487081497255,60.274602698451936
76.85987591743469,-2.619799499999999,0.581174110885948,-1.1402450291075028,0.4492531312951882,0.581174110885948,0.0,0.0,0.0,,0.0,10.59700650000002,66.78853820824925,72.15277659826126,68.81326779701521,66.78853820824925
76.87555885314941,9.830327499999981,1.414844828063679,-0.5865731801879912,0.26859063279834267,1.414844828063679,0.0,0.0,0.0,,0.0,-1.1051404999999477,71.36598486970078,78.44710533441032,70.16328475895206,71.36598486970078
76.87555885314941,3.812828499999995,2.438496637943983,0.016527002879892283,0.6122446042646601,2.438496637943983,0.0,0.0,0.0,,0.0,20.563840500000026,72.00303644941428,72.11515688591035,71.03957315113118,72.00303644941428
76.87626600265503,-4.7253635000000145,1.8946432643563729,-0.9899016400383569,0.8424501104343931,1.8946432643563729,0.0,0.0,0.0,,0.0,79.83751450000005,65.8294398888004,52.53966139763781,71.98051920166158,65.8294398888004
76.87626600265503,-0.4581374999999923,0.024361310368233875,-3.1117895093367407,0.35940031797222727,0.024361310368233875,0.0,0.0,0.0,,0.0,7.339553500000022,58.17216728954878,37.48173964395359,73.7685282589448,58.17216728954878
76.88992094993591,5.944571499999995,-1.7044539654490436,-4.6847123944969775,-0.2095662819189188,-1.7044539654490436,0.0,0.0,0.0,,0.0,-42.58811049999997,60.03453159888133,45.87753113185222,75.77605395497807,60.03453159888133
76.88992094993591,-1.9653174999999976,-1.9349521868928141,-4.4275644165711014,-0.8571542775920015,-1.9349521868928141,0.0,0.0,0.0,,0.0,24.801146500000016,72.01154949385406,71.45661200094726,77.22880661461114,72.01154949385406
76.90569996833801,-6.610272500000008,0.2393613479544069,-1.7657912245577072,-0.6542383069200102,0.2393613479544069,0.0,0.0,0.0,,0.0,97.44870350000002,82.21709578572504,89.88669664159742,78.86835293450906,82.21709578572504
76.90569996833801,6.56913449999999,4.337752761582652,2.477330351331992,2.487595684327994,4.337752761582652,0.0,0.0,0.0,,0.0,11.67783750000001,85.80604560929659,91.32668582324223,79.80596110854759,85.80604560929659
76.90637803077698,11.131812499999995,7.563349411775231,5.4020978351237385,5.5228893571804445,7.563349411775231,0.0,0.0,0.0,,0.0,-11.015875499999993,90.56448951241693,86.27378132111309,80.523736963369,90.56448951241693
76.90637803077698,8.166071499999987,6.6094217067125545,3.8707329976911007,4.0058431730466175,6.6094217067125545,0.0,0.0,0.0,,0.0,39.85424450000005,96.33489504047506,82.2980770878494,86.23017763407879,96.33489504047506
76.92001986503601,-5.147971500000011,1.5812708325120994,-1.7122377668899473,0.614218947287608,1.5812708325120994,0.0,0.0,0.0,,0.0,95.6797305,89.96614617662705,70.32973703297625,91.13909629978305,89.96614617662705
76.92001986503601,0.9742444999999975,-2.8749591491901874,-6.387959047471668,-0.9159230447132244,-2.8749591491901874,0.0,0.0,0.0,,0.0,-8.626079499999946,71.80130411537841,52.827578993727826,81.4448858970677,71.80130411537841
76.93561601638794,-3.259322499999996,-2.3683282859602333,-5.597472492618318,-0.9133537512845656,-2.3683282859602333,0.0,0.0,0.0,,0.0,-37.70006149999995,65.5059610928118,54.23074544234795,71.49930171331249,65.5059610928118
76.93561601638794,3.3416004999999984,1.5983417301541567,-1.054581960561853,0.26349655988532306,1.5983417301541567,0.0,0.0,0.0,,0.0,9.033728500000052,85.89881998597293,80.55110831962013,85.20670815565359,85.89881998597293
76.93632984161377,2.331827500000003,3.7178506112205336,1.474502999487386,1.5603217095900157,3.7178506112205336,0.0,0.0,0.0,,0.0,123.86361650000003,114.16489778502435,102.90513131669978,104.32726316144925,114.16489778502435
76.93632984161377,0.3235014999999919,2.480159137966293,0.21474877517450963,0.945503594564111,2.480159137966293,0.0,0.0,0.0,,0.0,19.423170500000026,121.44552398810075,97.14393766024841,102.0111031530834,121.44552398810075
76.9500060081482,1.48287049999999,1.1130085413336628,-1.4841347175956605,-0.7398727103159948,1.1130085413336628,0.0,0.0,0.0,,0.0,8.420384500000011,105.01717227392852,75.15095039505582,88.70137988817476,105.01717227392852
76.9500060081482,4.257876500000009,0.5371979624191846,-2.4066985300393364,-1.5376370596874127,0.5371979624191846,0.0,0.0,0.0,,0.0,9.68447150000003,85.81157648502489,62.96665106599363,80.31928016570554,85.81157648502489
76.96540403366089,-8.659738500000003,-2.50342961632276,-5.547010729295311,-2.6465588979228887,-2.50342961632276,0.0,0.0,0.0,,0.0,45.92036150000001,77.39839496234265,63.9661950612022,76.47794218256794,77.39839496234265
76.96540403366089,-5.428464500000018,-8.674789718953233,-11.34743269783539,-5.806834693982449,-8.674789718953233,0.0,0.0,0.0,,0.0,-16.23303549999997,73.68078235990262,63.94589788436508,75.64323954398608,73.68078235990262
76.98069190979004,-18.102985500000003,-13.663180681737655,-15.405958249983197,-9.356634309072122,-13.663180681737655,0.0,0.0,0.0,,0.0,-17.003454499999975,68.63601005442186,61.29571237445059,78.04650195673779,68.63601005442186
76.98069190979004,-10.705463500000008,-14.652955292525599,-15.086755601696693,-11.13959349109386,-14.652955292525599,0.0,0.0,0.0,,0.0,-42.81250449999999,71.15661890509911,69.96238103866104,82.95228643552463,71.15661890509911
76.98139595985413,-13.970395499999995,-13.434946252023305,-12.544854844356653,-11.02145807218192,-13.434946252023305,0.0,0.0,0.0,,0.0,53.998545500000034,87.22095033661793,93.73940311361868,87.3256445345353,87.22095033661793
76.98139595985413,-20.0851325,-11.558995150573159,-9.669800956212153,-9.424872213702162,-11.558995150573159,0.0,0.0,0.0,,0.0,28.469988500000056,100.91812403101905,117.02458488816833,88.68380239062894,100.91812403101905
76.99569201469421,-2.49638250000001,-8.161678099803297,-5.804034186913198,-6.604860873105834,-8.161678099803297,0.0,0.0,0.0,,0.0,-38.51909949999998,93.34318074412265,125.32691232671962,88.09458184710459,93.34318074412265
76.99569201469421,-1.5165295000000185,-3.674644117547647,-1.3711612742824335,-2.80703161872336,-3.674644117547647,0.0,0.0,0.0,,0.0,-20.474082499999952,72.66200914258937,124.75747815704152,85.63665128513667,72.66200914258937
76.99631786346436,-8.43908350000001,-0.5325802325649845,1.4722265324421429,0.5473387504004886,-0.5325802325649845,0.0,0.0,0.0,,0.0,31.316052500000012,66.14275916234547,133.84606267721733,85.49074413480919,66.14275916234547
76.99631786346436,-0.8134275000000173,0.376509592877604,2.202464774377495,1.8762857188714313,0.376509592877604,0.0,0.0,0.0,,0.0,-23.985848499999975,85.08226125492018,159.0371004842391,94.44387089885441,85.08226125492018
77.00999593734741,2.3056484999999896,0.29355366718984743,2.1483298422985753,1.6700217190213245,0.29355366718984743,0.0,0.0,0.0,,0.0,-12.986802499999953,112.15019359971853,185.20513906050834,106.18630206077293,112.15019359971853
77.00999593734741,3.9960834999999975,0.052305992914742055,1.9057332946528733,0.8564868533106123,0.052305992914742055,0.0,0.0,0.0,,0.0,38.979107500000055,124.99700789832211,193.96434699955284,110.92652807017164,124.99700789832211
77.02560687065125,-12.870865500000008,-0.4964334182217823,1.119346786147607,-0.08177298942282958,-0.4964334182217823,0.0,0.0,0.0,,0.0,66.87876150000005,121.8239990603081,185.32572967398508,112.07106989960022,121.8239990603081
77.02560687065125,0.45065850000000296,-1.3380153286198195,-0.11934654821698198,-0.5603543045116763,-1.3380153286198195,0.0,0.0,0.0,,0.0,-5.507002499999942,116.82116426182091,173.74414303619878,115.17674487147696,116.82116426182091
77.02631998062134,0.9405854999999974,-2.088617505669115,-1.2056412840932151,-0.6360767207134791,-2.088617505669115,0.0,0.0,0.0,,0.0,4.860000500000012,118.27955559760015,169.05423765804073,118.92911575106722,118.27955559760015
77.02631998062134,-2.6459785000000124,-2.317072181229994,-1.581664202301292,-0.5411123390679263,-2.317072181229994,0.0,0.0,0.0,,0.0,13.738522500000045,123.42982557369287,170.76792474857814,121.53370423738673,123.42982557369287
77.03995895385742,-12.998021499999993,-1.6647108995917872,-0.8923793351127762,-0.2500646223265799,-1.6647108995917872,0.0,0.0,0.0,,0.0,78.16203950000005,129.35771207720865,175.6520217592191,122.86089287889145,129.35771207720865
77.03995895385742,3.887626499999982,-0.12128595877683682,0.8055683680259123,0.05713557379760982,-0.12128595877683682,0.0,0.0,0.0,,0.0,3.6594925000000558,133.64449836520197,176.93903919030055,123.40105485437321,133.64449836520197
77.05564999580383,1.2322974999999872,1.9243957467517694,3.0204689724364506,0.6170366126419539,1.9243957467517694,0.0,0.0,0.0,,0.0,-3.5211154999999508,128.8481415161708,163.46745496774406,122.99309344331225,128.8481415161708
77.05564999580383,4.325194500000009,3.90970862577078,5.084476728183525,1.9352250876163395,3.90970862577078,0.0,0.0,0.0,,0.0,29.591958500000032,113.7002437951706,135.92423621277555,119.81258255620904,113.7002437951706
77.05629086494446,-4.9534974999999974,4.996687235313428,6.126874162909519,3.350060249291546,4.996687235313428,0.0,0.0,0.0,,0.0,13.357052500000009,104.21936533227337,114.7854611489038,116.84334048634153,104.21936533227337
77.05629086494446,3.865186499999993,4.382522717794374,5.407712421901043,3.996958541770136,4.382522717794374,0.0,0.0,0.0,,0.0,-13.712342499999977,113.9586145004805,114.60318147892276,119.60350838733518,113.9586145004805
77.0700249671936,7.470450499999998,2.6091125173502014,3.5331247627614966,4.306953576035056,2.6091125173502014,0.0,0.0,0.0,,0.0,16.266695500000026,130.22705583824694,122.57795678353057,122.24403297909647,130.22705583824694
77.0700249671936,-3.2331435000000113,1.7453715385044866,2.5626585653614677,4.493932737905103,1.7453715385044866,0.0,0.0,0.0,,0.0,5.918391500000041,131.08397163621132,119.05852917051348,117.70258684893768,131.08397163621132
77.08570194244385,-6.202623500000016,2.9478782762080793,3.6210640419850266,4.673361928531105,2.9478782762080793,0.0,0.0,0.0,,0.0,43.126656500000024,117.14362653745336,104.53732516866157,110.83606714992857,117.14362653745336
77.08570194244385,6.105387500000006,4.543398722882237,5.0273962781455515,5.132525354404885,4.543398722882237,0.0,0.0,0.0,,0.0,-24.54683349999999,106.03476224556508,90.87213046259315,105.1484544942322,106.03476224556508
77.08628988265991,5.297568499999983,3.728089215206323,3.9908321645918114,3.975225180780157,3.728089215206323,0.0,0.0,0.0,,0.0,-25.42196949999999,106.03373982656322,84.06459755333049,106.01001998296256,106.03373982656322
77.08628988265991,-5.297567500000014,-0.8179921366736758,-0.7223217828933541,0.034607463763485766,-0.8179921366736758,0.0,0.0,0.0,,0.0,-13.394451499999946,113.76546861637428,85.52043094169932,115.51065488585152,113.76546861637428
77.09993290901184,-17.448502500000018,-8.702740051024588,-8.520716368135147,-6.393678844725204,-8.702740051024588,0.0,0.0,0.0,,0.0,53.93496750000003,124.27887699733957,95.42919486470447,118.1396097403125,124.27887699733957
77.09993290901184,-16.577106500000014,-17.994566263159193,-17.28389091312616,-15.275371200649964,-17.994566263159193,0.0,0.0,0.0,,0.0,-9.92756449999996,121.83045113460801,100.81848389607137,106.96638928714057,121.83045113460801
77.11567091941833,-26.278406500000003,-24.265708720919918,-22.56555253421302,-21.13925443112536,-24.265708720919918,0.0,0.0,0.0,,0.0,-104.69662949999997,74.14956924165784,71.703485708612,62.276622326879064,74.14956924165784
77.11567091941833,-20.6984755,-21.956820158180683,-18.940627670210976,-18.689511818563297,-21.956820158180683,0.0,0.0,0.0,,0.0,-84.50864949999999,-33.83441727964119,-5.70921631575915,-45.13238116896903,-33.83441727964119
77.11631894111633,-24.823585500000007,-9.326248867478638,-4.869083129801223,-9.053840220941524,-9.326248867478638,0.0,0.0,0.0,,0.0,-305.17209649999995,-165.005499040168,-95.08654517177897,-167.41068839958555,-165.005499040168
77.11631894111633,11.894752499999981,8.519696205863049,14.320239715515575,6.08875446231014,8.519696205863049,0.0,0.0,0.0,,0.0,-391.8442775,-259.6919061244289,-148.18573195034642,-240.2651075371416,-205.61623558834194
77.12996792793274,24.3560985,22.955376650119916,29.74418052851465,19.69807746993329,22.955376650119916,0.0,0.0,0.0,,0.0,-421.4381065,-298.56083311010497,-164.78090199655193,-274.13197760483683,-205.61623558834194
77.12996792793274,19.984155499999986,27.981468168930725,35.05949227625259,23.97337110848584,27.981468168930725,0.0,0.0,0.0,,0.0,-443.62693249999995,-308.8052179622483,-184.25954089713517,-289.93251331290804,-205.61623558834194
77.1453709602356,18.577953500000007,23.228277537140013,29.890951919255258,20.580888997570277,23.228277537140013,0.0,0.0,0.0,,0.0,-415.2410914999999,-317.2826446815631,-231.1592744832756,-297.048897537748,-205.61623558834194
77.1453709602356,7.960377499999993,13.066628974147529,18.886534801399826,12.279614275498684,13.066628974147529,0.0,0.0,0.0,,0.0,-452.01926849999995,-327.70422997605885,-299.12513942424397,-311.87337253558366,-205.61623558834194
77.16061687469482,5.159192499999989,4.05124725778677,8.718453148306338,4.142125706972278,4.05124725778677,0.0,0.0,0.0,,0.0,-476.33983749999993,-336.07136525118784,-373.3805741072284,-329.3618981971665,-205.61623558834194
77.16061687469482,0.8844865000000084,1.3953792849820252,4.597059970361901,3.0849344515853474,1.3953792849820252,0.0,0.0,0.0,,0.0,-511.64449349999995,-343.0211267794014,-442.5202318619848,-336.76631265681743,-205.61623558834194
77.16137385368347,-9.673250499999995,5.312465099474459,6.786117574891577,6.061392084797914,5.312465099474459,0.0,0.0,0.0,,0.0,-396.4406144999999,-351.12691849494865,-496.84859880806675,-339.5805575114968,-205.61623558834194
77.16137385368347,8.727056500000003,10.538387620625741,10.183434704454893,7.6512693737368656,10.538387620625741,0.0,0.0,0.0,,0.0,-512.0259625,-359.9216319120968,-529.0769045665633,-344.81698084020064,-205.61623558834194
77.17562794685364,16.66312450000001,11.585258128823389,9.605902051766392,8.21023420521987,11.585258128823389,0.0,0.0,0.0,,0.0,-516.0388755,-365.1895031361653,-536.061969354751,-350.44243540884816,-205.61623558834194
77.17562794685364,4.007303500000006,9.105021143624816,6.050681595122602,8.010688982320058,9.105021143624816,0.0,0.0,0.0,,0.0,-522.6248395,-364.2724432648211,-519.92668237827,-354.4333446482134,-205.61623558834194
77.17633986473083,-9.063647500000002,8.354160960600002,4.807780401081255,7.422113944812364,8.354160960600002,0.0,0.0,0.0,,0.0,-406.37378949999993,-359.54001428908623,-490.8501207402273,-355.96737909923814,-205.61623558834194
77.17633986473083,15.155944500000004,10.955819609887987,7.072260168818499,8.11154105039799,10.955819609887987,0.0,0.0,0.0,,0.0,-497.3618154999999,-352.75355822558276,-464.06370452475005,-353.3462978460777,-205.61623558834194
77.18994092941284,11.247749499999998,12.486518008540777,8.012860772563261,8.58488007331789,12.486518008540777,0.0,0.0,0.0,,0.0,-525.9234315,-343.89350444071863,-450.1644713526617,-348.3044357022772,-205.61623558834194
77.18994092941284,5.761316499999992,9.443746158598554,4.264092316424801,6.23788027370262,9.443746158598554,0.0,0.0,0.0,,0.0,-468.59824449999996,-339.3879906868165,-449.4772240858035,-344.4022575379629,-205.61623558834194
77.20563888549805,-10.769041500000014,4.2179563704946545,-1.3326208795482382,3.182757247771172,4.2179563704946545,0.0,0.0,0.0,,0.0,-392.47632049999993,-346.36429192600053,-449.9299856219007,-340.7167268670747,-205.61623558834194
77.20563888549805,2.754436499999997,1.4058954584555572,-4.036105493359068,2.47495234336517,1.4058954584555572,0.0,0.0,0.0,,0.0,-525.8074945,-355.5621997768578,-430.7143341135894,-335.3254494468286,-205.61623558834194
77.20630383491516,0.3758604999999875,2.251197437289644,-2.879652845344303,2.9460136065931355,2.251197437289644,0.0,0.0,0.0,,0.0,-512.7702025,-350.9563188366112,-382.45453771441936,-331.6722854930208,-205.61623558834194
77.20630383491516,-0.09536750000000893,4.034569754913445,-0.8732288556103747,3.037754125624857,4.034569754913445,0.0,0.0,0.0,,0.0,-465.2211145,-338.2373207861456,-328.15541994848024,-333.31149115267516,-205.61623558834194
77.21991801261902,-11.128071500000004,3.5188043703826826,-1.2679555610327422,3.0335805315970523,3.5188043703826826,0.0,0.0,0.0,,0.0,-403.8942354999999,-339.02605569314505,-303.8937835036201,-339.26440297040165,-205.61623558834194
77.21991801261902,4.265356499999996,0.8135684525264818,-3.7824845909411553,2.4694880659442755,0.8135684525264818,0.0,0.0,0.0,,0.0,-508.50297749999993,-355.17783614460745,-313.0163526190371,-350.4094687297881,-205.61623558834194
77.2362449169159,-6.008148500000004,-0.21889333338009348,-4.465291738782683,2.0552203449418256,-0.21889333338009348,0.0,0.0,0.0,,0.0,-513.9370514999999,-365.91845499400455,-324.2255925603267,-365.6490723943269,-205.61623558834194
77.2362449169159,-1.1313195000000178,2.892065223737066,-1.0130024782597191,4.086036484374214,2.892065223737066,0.0,0.0,0.0,,0.0,-520.5379755,-366.26532747309165,-318.0938642272678,-366.33532419807204,-205.61623558834194
77.23699283599854,-7.010442500000011,6.370970910411564,2.5386595426335274,5.817961741951534,6.370970910411564,0.0,0.0,0.0,,0.0,-451.81357349999996,-377.2067157034892,-309.3356012734107,-354.76303678922693,-205.61623558834194
77.23699283599854,5.529442499999988,4.397924576555507,0.41789706425891726,2.8621738423397542,4.397924576555507,0.0,0.0,0.0,,0.0,-491.6696875,-393.7579465200248,-300.46149594929653,-365.36265664815085,-205.61623558834194
77.25065898895264,-3.887625500000013,-1.7164243848645255,-5.662284442902328,-0.859682756967626,-1.7164243848645255,0.0,0.0,0.0,,0.0,-506.0271634999999,-351.7168098180444,-239.53770686116889,-337.8580417585911,-205.61623558834194
77.25065898895264,-12.754928500000005,-3.7097572441202193,-7.221106035174546,-0.5031272527897687,-3.7097572441202193,0.0,0.0,0.0,,0.0,-433.21879049999995,-199.89692179317043,-84.47717991571783,-181.2513741476149,-199.89692179317043
77.25134205818176,-6.9169445,2.474256709455306,-0.5970190219301519,2.322536883987855,2.474256709455306,0.0,0.0,0.0,,0.0,28.627064500000017,3.167682458534448,106.57788500503283,6.534807775896677,3.167682458534448
77.26494097709656,6.445717500000001,10.376918689859156,7.089419229667035,6.420531022768701,10.376918689859156,0.0,0.0,0.0,,0.0,-6.516775499999994,131.77730650573275,216.71038134492926,103.09610248742959,131.77730650573275
77.26494097709656,10.34643349999999,11.013681049129962,6.697820446890772,9.044863436493541,11.013681049129962,0.0,0.0,0.0,,0.0,-32.340784499999984,139.7040432717121,206.24470672538837,116.93346701272397,139.7040432717121
77.28082799911499,-0.768549500000006,4.2190780457237524,-1.378684134685507,5.485536757124273,4.2190780457237524,0.0,0.0,0.0,,0.0,-59.95994549999995,100.96456913287174,150.39478125704338,107.64474450015975,100.96456913287174
77.28082799911499,-14.606178499999999,-1.7850549735563228,-8.142315970625239,-0.0015117064182326306,-1.7850549735563228,0.0,0.0,0.0,,0.0,62.62275550000004,97.33385061138999,130.36416887432657,104.0139470991917,97.33385061138999
77.28131294250488,-9.022508500000015,-1.5225516525997256,-7.689486400538056,-0.35557997331637653,-1.5225516525997256,0.0,0.0,0.0,,0.0,3.7006315000000427,127.5512226571966,147.0190284100547,118.26572337109468,127.5512226571966
77.28131294250488,2.735737499999999,1.2469647779706137,-3.7672503959267187,1.733223234252627,1.2469647779706137,0.0,0.0,0.0,,0.0,-29.15438949999998,142.11727888222853,152.74728066324786,138.1389538591483,142.11727888222853
77.29496383666992,-0.3683795000000032,0.5773689525659235,-2.480580029398752,1.2704618115503978,0.5773689525659235,0.0,0.0,0.0,,0.0,-6.864586499999973,119.32205251793125,126.84593027419537,119.52137239723648,119.32205251793125
77.29496383666992,-21.618491500000005,-2.0349128055143626,-2.6652584731317557,0.1049856217875429,-2.0349128055143626,0.0,0.0,0.0,,0.0,50.808411500000034,84.15983218289286,93.6784035356875,89.93603264379223,84.15983218289286
77.3106918334961,-3.5921735000000012,-0.6757256717462399,0.9006960856789037,1.3953964938278698,-0.6757256717462399,0.0,0.0,0.0,,0.0,-105.3548515,71.7263797283997,84.00992475085611,87.76102431929621,71.7263797283997
77.3106918334961,3.483717499999983,4.302879432032622,7.048692618045721,2.667106768477382,4.302879432032622,0.0,0.0,0.0,,0.0,-17.340045499999974,88.15383492903858,101.17880567809938,99.5049598017804,88.15383492903858
77.31144595146179,1.408072500000003,5.647656734550691,8.304460502634402,0.7599416077447618,5.647656734550691,0.0,0.0,0.0,,0.0,-25.810919499999954,109.37606803852105,125.28457247033467,106.45208750033822,109.37606803852105
77.31144595146179,-13.682423499999999,0.026701200211648013,2.0429290768602115,-2.25704892683302,0.026701200211648013,0.0,0.0,0.0,,0.0,48.49715250000003,112.66280083427696,138.47967035867825,107.65418339037258,112.66280083427696
77.32496500015259,-10.993435500000004,-6.555582026793479,-4.781222138998779,-4.4952440260582796,-6.555582026793479,0.0,0.0,0.0,,0.0,-11.154251499999987,99.01442546472701,134.30377842526272,101.01626565234241,99.01442546472701
77.32496500015259,-12.006948499999993,-7.011691321941586,-4.907507123891575,-5.727955437500312,-7.011691321941586,0.0,0.0,0.0,,0.0,-73.35252749999995,84.21169547949296,116.17254069646378,90.2198647482006,84.21169547949296
77.34079098701477,-4.067140499999994,-2.966915427474935,-0.6770248870510716,-3.8875027782633156,-2.966915427474935,0.0,0.0,0.0,,0.0,-16.43499049999997,79.12326107627477,95.55151060037056,82.78672719879447,79.12326107627477
77.34079098701477,-17.908510500000006,-2.4165076448621545,-0.6041451376649496,-2.394040376090647,-2.4165076448621545,0.0,0.0,0.0,,0.0,8.506402500000036,81.9869858663868,86.7852105893396,77.05688506708933,81.9869858663868
77.34140801429749,-13.880638500000003,-8.844944833177488,-7.707108355906953,-7.8535810445923895,-8.844944833177488,0.0,0.0,0.0,,0.0,-27.389157499999953,83.3018910872925,94.07440666148574,69.59938779881436,83.3018910872925
77.34140801429749,-14.886671500000006,-16.196232768721615,-15.005184220190673,-14.152304686083752,-16.196232768721615,0.0,0.0,0.0,,0.0,-43.88585549999999,76.42923772367702,103.81557660461971,62.36135758490339,76.42923772367702
77.35495591163635,-25.69498250000001,-16.065484768453924,-13.94061560983356,-11.979984773319485,-16.065484768453924,0.0,0.0,0.0,,0.0,-65.88394749999998,64.800274361851,103.6827809598883,57.5806045302118,64.800274361851
77.35495591163635,-23.189249500000003,-8.508327373369616,-5.402171650044691,-6.65059410877163,-8.508327373369616,0.0,0.0,0.0,,0.0,15.058707500000025,56.278867591584195,96.3745567217469,54.92234287453914,56.278867591584195
77.37072992324829,-2.9863095000000044,-2.709240494806286,0.6973047090801048,-5.443148001761118,-2.709240494806286,0.0,0.0,0.0,,0.0,-55.78247749999997,52.57464724311604,90.9496410482105,53.67599539525953,52.57464724311604
77.37072992324829,-7.874359499999997,-5.572417035768146,-2.4408045615940077,-7.123456618739079,-5.572417035768146,0.0,0.0,0.0,,0.0,-76.6511195,51.57149283520567,93.66626986788512,53.886514653483644,51.57149283520567
77.37141585350037,-21.207102500000005,-13.055498300028002,-10.04724148801978,-10.525093979460932,-13.055498300028002,0.0,0.0,0.0,,0.0,-38.25730649999997,56.1427513798848,101.9994128439799,55.61693505923306,56.1427513798848
77.37141585350037,-31.36841050000001,-16.356023798569154,-12.931781523109255,-13.632378026746863,-16.356023798569154,0.0,0.0,0.0,,0.0,-6.890765499999986,68.67033489431903,107.34917749725822,58.15672645182113,68.67033489431903
77.38511490821838,-15.638391500000012,-13.766753310832962,-9.676557270624194,-12.680186946488426,-13.766753310832962,0.0,0.0,0.0,,0.0,13.906818500000043,80.33870913285469,102.13333440542871,60.740270418249224,80.33870913285469
77.38511490821838,-13.80958050000001,-11.396770964955087,-6.817074658072059,-10.242616702381202,-11.396770964955087,0.0,0.0,0.0,,0.0,-49.34984949999995,80.11888927563402,88.40349259103829,63.44475330428168,80.11888927563402
77.40068793296814,-20.073912500000006,-13.421542046304058,-8.599338619747963,-10.830341515016336,-13.421542046304058,0.0,0.0,0.0,,0.0,-45.826863499999945,72.05159419465018,76.95135116808774,66.50777757457965,72.05159419465018
77.40068793296814,-29.5620385,-16.75830183767893,-11.698366869423435,-12.356870731764797,-16.75830183767893,0.0,0.0,0.0,,0.0,61.17541350000005,70.32274521236795,72.36361531459717,70.12959654783788,70.32274521236795
77.4014048576355,-23.98210850000001,-16.349313594892934,-10.921204333510666,-11.569573769380785,-16.349313594892934,0.0,0.0,0.0,,0.0,-35.082131499999946,79.17881667087062,69.02081549521273,74.45856778312304,79.17881667087062
77.4014048576355,-10.870018500000015,-12.034580784553572,-6.204561828268758,-9.705022376363663,-12.034580784553572,0.0,0.0,0.0,,0.0,-20.21228949999994,89.19084271752033,64.22929795193409,79.3947698706442,89.19084271752033
77.41528606414795,-15.387818500000009,-7.89747745045524,-1.7429414572060065,-8.541182817682571,-7.89747745045524,0.0,0.0,0.0,,0.0,9.635852500000055,93.53107940172204,65.79957106308129,84.64696423183976,93.53107940172204
77.41528606414795,-20.021554500000008,-6.6069208129038755,-0.23154264096077792,-7.654761959879569,-6.6069208129038755,0.0,0.0,0.0,,0.0,74.64279350000004,97.45704971674984,79.24769369671898,89.45009374714881,97.45704971674984
77.4307599067688,-11.670357499999994,-6.906898969451038,-0.3948827448395553,-6.523282469279607,-6.906898969451038,0.0,0.0,0.0,,0.0,-18.076806499999975,105.23523558462409,91.49388155945223,93.59940457888342,105.23523558462409
77.4307599067688,-8.682177499999995,-6.4250800299897115,0.16288843828930233,-5.398161764657319,-6.4250800299897115,0.0,0.0,0.0,,0.0,39.136183500000016,107.47483091637447,79.92243064586167,96.64115017680108,107.47483091637447
77.43142199516296,-12.818506500000012,-4.933861492017211,1.6924613360268337,-4.463582989078478,-4.933861492017211,0.0,0.0,0.0,,0.0,9.101046500000052,96.19577431572097,44.73591661802523,97.25172461967028,96.19577431572097
77.43142199516296,-13.428110500000003,-3.8752479427538957,2.775486372003312,-3.9022181801871656,-3.8752479427538957,0.0,0.0,0.0,,0.0,42.47217450000005,84.5728941766238,18.556545129146457,98.03902245529571,84.5728941766238
77.44505405426025,-11.255228500000015,-3.7969289809456455,2.8902036651740333,-3.8861827592203833,-3.7969289809456455,0.0,0.0,0.0,,0.0,25.47058850000002,92.11801836302794,27.113984521649485,102.00994685106977,92.11801836302794
77.44505405426025,-6.819707499999993,-4.052109809602754,2.723312721957619,-4.220010093148872,-4.052109809602754,0.0,0.0,0.0,,0.0,14.381785500000035,114.85552193212627,53.35620779307575,105.98165862060718,114.85552193212627
77.46079993247986,-10.926117500000004,-4.627977371976348,2.326860562503162,-4.643490791579473,-4.627977371976348,0.0,0.0,0.0,,0.0,52.16225450000002,128.12197408341456,60.05837241823784,108.05646933887006,128.12197408341456
77.46079993247986,-15.600992500000018,-5.860150466037638,1.3610075598208136,-4.82314362563886,-5.860150466037638,0.0,0.0,0.0,,0.0,105.52314750000005,117.51565429263987,38.45481369093724,106.10946335836282,117.51565429263987
77.46131992340088,-14.060153500000013,-6.361120169957063,1.1177614360205794,-4.487292350712746,-6.361120169957063,0.0,0.0,0.0,,0.0,25.687503500000048,94.43898797612022,14.538349248921463,94.82529016719567,94.43898797612022
77.46131992340088,-8.308187500000003,-4.187107059192661,3.3664133245841885,-3.719100423236485,-4.187107059192661,0.0,0.0,0.0,,0.0,-27.078745499999968,79.80456850668686,11.499756625268347,83.23727782768337,79.80456850668686
77.47501683235168,-2.6945975000000146,-0.43134819355329135,6.912470509888509,-2.4624849545320133,-0.43134819355329135,0.0,0.0,0.0,,0.0,28.27925350000004,80.93661039625019,24.798596049993648,84.96982044672328,80.93661039625019
77.47501683235168,-14.187310499999995,1.4435919878210708,8.421272247554027,-1.0770920897468783,1.4435919878210708,0.0,0.0,0.0,,0.0,84.01124250000004,89.24580792233981,37.53411478234307,91.63443730275202,89.24580792233981
77.49067091941833,-2.1036934999999914,0.6664055453617638,7.359771218885326,-0.47473955641741816,0.6664055453617638,0.0,0.0,0.0,,0.0,22.43005050000005,94.36737929876385,43.798383055043345,90.97993377310934,94.36737929876385
77.49067091941833,-1.815721499999995,0.5822247495713084,7.129665084085097,0.10194120085913051,0.5822247495713084,0.0,0.0,0.0,,0.0,5.159192500000017,92.08967119355226,46.26929126109134,85.35894555757713,92.08967119355226
77.49127984046936,-7.8369605000000035,3.50733026324306,9.819177587312296,2.0747495604892654,3.50733026324306,0.0,0.0,0.0,,0.0,36.25272050000001,82.13968001054087,43.07751015404854,78.31653762241594,82.13968001054087
77.49127984046936,1.3183154999999829,6.8766829360813615,12.602370604558622,3.9651678973335107,6.8766829360813615,0.0,0.0,0.0,,0.0,58.65472150000005,68.12754296128114,31.88156039755556,71.95306765703334,68.12754296128114
77.50498294830322,1.1500194999999849,6.86799413929958,11.692001349710825,3.829707341808003,6.86799413929958,0.0,0.0,0.0,,0.0,5.125533500000017,59.40413538545949,21.54428822806843,68.85709084730374,59.40413538545949
77.50498294830322,-4.385032499999994,3.4733260386276776,7.408305687618759,2.5143761841829932,3.4733260386276776,0.0,0.0,0.0,,0.0,-4.975936499999989,64.78357229643213,25.425214860230767,67.96033996915652,64.78357229643213
77.52067804336548,-3.087287500000002,-0.40269417220940357,2.974560682884659,1.1151144775764175,-0.40269417220940357,0.0,0.0,0.0,,0.0,17.785094500000014,80.39639097461156,41.48269086211817,68.11061740628392,80.39639097461156
77.52067804336548,-9.987402500000002,-2.325254070539587,0.8920682409794103,0.14124533685644772,-2.325254070539587,0.0,0.0,0.0,,0.0,96.64836450000001,88.16604605541202,50.07193140092268,66.5808298316534,88.16604605541202
77.52134799957275,-13.600145499999996,-1.288986946264471,1.960424533936582,0.30748041022909567,-1.288986946264471,0.0,0.0,0.0,,0.0,45.99889950000005,74.61378063448427,38.21619954302449,59.99681504199671,74.61378063448427
77.52134799957275,0.9256254999999953,1.6456662986834254,4.777173856337811,0.9954703886643813,1.6456662986834254,0.0,0.0,0.0,,0.0,-33.76568649999996,49.77140609794608,18.972247144685227,52.08067723979947,49.77140609794608
77.53509092330933,1.6249865000000057,3.280923874583772,5.953154211640202,1.1673389858763774,3.280923874583772,0.0,0.0,0.0,,0.0,-22.549726499999963,35.897849129435166,15.063421742658413,46.56034781662055,35.897849129435166
77.53509092330933,-11.517021499999998,1.7781415980241857,3.8531723749162543,1.0548255589804443,1.7781415980241857,0.0,0.0,0.0,,0.0,76.38558650000004,39.63447975055382,29.625622115790495,44.400055629833794,39.63447975055382
77.5507140159607,-10.776521500000001,-0.6506152603292017,1.071651489041548,0.9298472804892313,-0.6506152603292017,0.0,0.0,0.0,,0.0,20.900431500000025,49.59572412160167,48.65800134184062,48.146165956491394,49.59572412160167
77.5507140159607,3.790388500000006,-0.8855858066951882,0.8325650205069969,0.7675346652010495,-0.8855858066951882,0.0,0.0,0.0,,0.0,-44.48049949999995,55.14399784507398,62.67560299213201,51.35594231772774,55.14399784507398
77.55166888237,-7.391911499999992,0.9125293755428521,2.717753609443099,0.8760181806499349,0.9125293755428521,0.0,0.0,0.0,,0.0,30.362378500000034,51.53643185721096,68.29618477473545,45.45032333195478,51.53643185721096
77.55166888237,-11.629218500000007,1.9148714397116278,3.5999302897682424,0.7633561669889799,1.9148714397116278,0.0,0.0,0.0,,0.0,87.42577150000005,37.46667242572151,61.05396553087418,36.03307305392467,37.46667242572151
77.56488394737244,-1.3781524999999988,0.2031927241591956,1.5453121452277374,-0.4274418007214021,0.2031927241591956,0.0,0.0,0.0,,0.0,-42.72274649999997,22.26235542590263,45.33275698534918,29.175273761759712,22.26235542590263
77.56488394737244,-7.2385764999999935,-2.8807668434071325,-1.8470977134984152,-1.718172667311676,-2.8807668434071325,0.0,0.0,0.0,,0.0,-33.933982499999956,21.7925181551438,38.114048090934716,27.168097806733137,21.7925181551438
77.58070492744446,-5.832373500000017,-3.7776660078284365,-2.8060918729132713,-1.989641664880211,-3.7776660078284365,0.0,0.0,0.0,,0.0,22.411350500000026,37.53010559550942,48.250888259801684,34.492309544534116,37.53010559550942
77.58070492744446,-17.957129500000008,-0.8862979574794716,0.1913368572394445,-1.7527867209192183,-0.8862979574794716,0.0,0.0,0.0,,0.0,93.52554850000001,53.486056799020226,64.46538179646971,42.637440499596124,53.486056799020226
77.5813159942627,2.0475955,2.623187784446358,3.7238342994428906,-1.1135210086290883,2.623187784446358,0.0,0.0,0.0,,0.0,-4.845040499999982,56.1815245902858,69.80019093453986,39.14332132365074,56.1815245902858
77.5813159942627,0.8134284999999863,2.0765564233693112,2.999489436683816,-0.9170646862575227,2.0765564233693112,0.0,0.0,0.0,,0.0,22.893797500000005,45.23874212086154,59.298744531400224,29.30917237301324,45.23874212086154
77.59498000144958,-10.858799500000003,-2.590523231347264,-1.8987800242246093,-3.0183366051038134,-2.590523231347264,0.0,0.0,0.0,,0.0,4.366333500000053,28.000598907736094,40.11333847918185,21.64395791619008,28.000598907736094
77.59498000144958,-12.956883500000004,-6.209654655342066,-5.5802398398871444,-5.112800366045478,-6.209654655342066,0.0,0.0,0.0,,0.0,38.98284750000005,14.28646773585263,22.550627335325764,16.407836258658374,14.28646773585263
77.61061096191406,-15.485055500000016,-4.7364640563049605,-3.992335843845954,-3.8147866995528252,-4.7364640563049605,0.0,0.0,0.0,,0.0,0.3459405000000402,11.39252285097213,14.926603276645494,13.486789278103522,11.39252285097213
77.61061096191406,1.927918500000004,-0.4421192965640519,0.4208343584125993,-1.3939258307550073,-0.4421192965640519,0.0,0.0,0.0,,0.0,-34.10601749999995,17.272873128892783,17.697671013569252,12.646614492765668,17.272873128892783
77.61133694648743,-2.073774500000013,1.014606164283801,1.9230983352455098,-0.6150999919169161,1.014606164283801,0.0,0.0,0.0,,0.0,12.829727500000047,22.759233378866835,23.909106028096325,12.779530858937456,22.759233378866835
77.61133694648743,-17.39614449999999,-2.31630888700112,-1.3462358631436095,-1.3777506504843606,-2.31630888700112,0.0,0.0,0.0,,0.0,76.46038450000003,23.248470199386237,26.841744587816887,13.39233336359456,23.248470199386237
77.62487888336182,-9.145925500000004,-6.9233474442813145,-5.756524300172215,-3.795404375309193,-6.9233474442813145,0.0,0.0,0.0,,0.0,-20.066432499999962,22.873319331862376,26.08702097138628,13.48343182564061,22.873319331862376
77.62487888336182,-12.006948499999993,-8.70750025143736,-7.257343827632008,-5.695755951778008,-8.70750025143736,0.0,0.0,0.0,,0.0,9.497476500000005,25.115563290606715,24.654925799616944,12.990001136638037,25.115563290606715
77.64061403274536,-8.012735499999991,-6.719833678259751,-5.103333873473256,-4.453672829566574,-6.719833678259751,0.0,0.0,0.0,,0.0,17.257768500000054,25.88568404560922,22.39274206697264,13.249918358121137,25.88568404560922
77.64061403274536,-14.838052500000003,-2.116082490825006,-0.5624696402814395,-1.3998720537036307,-2.116082490825006,0.0,0.0,0.0,,0.0,54.77270550000003,19.14753350830049,15.958965910650408,12.276509941873678,19.14753350830049
77.64134383201599,-2.8965525000000127,3.290485461507012,4.612607941184361,2.1139882188333674,3.290485461507012,0.0,0.0,0.0,,0.0,-1.5314884999999663,4.785369288149357,2.833471565199584,6.731172643415664,4.785369288149357
77.64134383201599,8.364286499999992,6.719242079408318,7.736651773013271,4.313460226569942,6.719242079408318,0.0,0.0,0.0,,0.0,-36.02458649999994,-9.95731111678706,-13.960781477839479,0.17066279140489532,-9.95731111678706
77.65485882759094,1.2098574999999983,5.776414732220815,6.489459907025747,2.5168271355001837,5.776414732220815,0.0,0.0,0.0,,0.0,-19.29975349999995,-14.461686132419839,-22.886391683620204,-2.176529431786307,-14.461686132419839
77.65485882759094,-10.522208500000005,1.6210261674494122,2.158243476504464,-0.5661169575053525,1.6210261674494122,0.0,0.0,0.0,,0.0,42.81624450000004,-4.508002474132372,-13.84621196114378,-2.227493891261449,-4.508002474132372
77.67065095901489,-3.8801454999999976,-1.246359682048216,-0.6703498992709347,-0.8638915350848847,-1.246359682048216,0.0,0.0,0.0,,0.0,-1.9092184999999517,9.378690840413464,4.115575287686134,-2.8810987257265235,9.378690840413464
77.67065095901489,-2.7282565000000147,0.23972310075251133,0.9181953722573506,0.5480376097483899,0.23972310075251133,0.0,0.0,0.0,,0.0,0.18138550000003306,11.651175777711687,8.424795076513334,-3.2969272900345263,11.651175777711687
77.67143988609314,3.053628500000002,4.266082253869023,4.84010038956318,1.8721761305632862,4.266082253869023,0.0,0.0,0.0,,0.0,4.1381995000000416,3.24670177077979,-6.706656749306092,-3.574412390374687,3.24670177077979
77.67143988609314,-7.436790500000001,6.489115649065568,6.688283944200196,2.838316412384718,6.489115649065568,0.0,0.0,0.0,,0.0,44.00927250000001,1.5489295263458098,-20.549393543153283,-3.1961069680798597,1.5489295263458098
