time_s,raw_eeg1,bandpass_eeg1,nlms_eeg1,wavelet_eeg1,winsor_eeg1,raw_eeg2,bandpass_eeg2,nlms_eeg2,wavelet_eeg2,winsor_eeg2,raw_eeg3,bandpass_eeg3,nlms_eeg3,wavelet_eeg3,winsor_eeg3
5.002739906311035,-2.0027159999999924,-1.019986720116251,-1.019986720116251,1.8377546740732602,-1.019986720116251,0.0,0.0,0.0,,0.0,1.0901810000000296,-6.474907657337152,-6.474907657337152,6.65795288855418,-6.474907657337152
5.002739906311035,-2.372965999999991,-0.8563971483092064,-0.8563971483092064,2.3419097292462188,-0.8563971483092064,0.0,0.0,0.0,,0.0,5.106832999999995,5.35254110052881,5.35254110052881,9.452768151562742,5.35254110052881
5.0033159255981445,-5.925871000000001,2.448338149850022,2.448338149850022,2.8163967072952216,2.448338149850022,0.0,0.0,0.0,,0.0,60.01230400000003,3.289977074685499,3.289977074685499,12.772951386841957,3.289977074685499
5.0033159255981445,11.25148900000002,5.404634212167636,5.526070664602284,3.2079527822238503,5.404634212167636,0.0,0.0,0.0,,0.0,-22.617044999999962,5.302582804780006,5.136843924792119,14.879877877926745,5.302582804780006
5.0171380043029785,5.192852000000016,5.393885330691058,5.5486178133835455,3.5198636626165425,5.393885330691058,0.0,0.0,0.0,,0.0,22.92371700000001,22.989012256599832,23.67538746733134,16.07896001208248,22.989012256599832
5.0171380043029785,1.191158999999999,4.480065083946418,4.5654781624841405,3.870115573153088,4.480065083946418,0.0,0.0,0.0,,0.0,57.345755999999994,39.07932441027989,39.1673979173528,19.94287514872092,39.07932441027989
5.0325939655303955,-4.055920999999984,4.9664949477545655,4.427064590123782,3.9869420968207487,4.9664949477545655,0.0,0.0,0.0,,0.0,89.62109200000003,31.835339593090602,30.91198806410461,22.53851126195627,31.835339593090602
5.0325939655303955,13.940478000000013,5.136253370443218,3.700620327293863,3.742714937623456,5.136253370443218,0.0,0.0,0.0,,0.0,-24.685209999999984,9.74353044371406,8.321189382738137,15.590113338472154,9.74353044371406
5.033323049545288,-1.3931120000000021,2.763337185878131,1.5753523001504053,3.2704995271662565,2.763337185878131,0.0,0.0,0.0,,0.0,0.5665950000000066,0.7421214730694548,-1.1485502676907708,7.688034256694806,0.7421214730694548
5.033323049545288,3.0835480000000075,0.09307199321080717,0.2279121150642287,2.4025745898100133,0.09307199321080717,0.0,0.0,0.0,,0.0,35.23546700000003,12.155268747541118,10.21561404359334,12.696958189242958,12.155268747541118
5.064028978347778,-11.210349999999977,1.181065123898946,1.9960227288754724,1.9882892687287728,1.181065123898946,0.0,0.0,0.0,,0.0,69.50417000000004,23.910668839875378,22.892985116500892,21.740955562607848,23.910668839875378
5.064028978347778,11.460924000000006,5.460704668291684,5.44807922433123,3.2504802691103647,5.460704668291684,0.0,0.0,0.0,,0.0,-1.7783230000000003,21.193020576823333,20.810119971071106,21.0619194440478,21.193020576823333
5.064682960510254,10.913029000000023,8.15952221478971,6.939295149765284,5.0416376564841086,8.15952221478971,0.0,0.0,0.0,,0.0,22.149557000000016,12.818317395194827,10.719043838702307,15.799431251595985,12.818317395194827
5.06543493270874,5.826765000000023,7.228304220036919,5.77268226800436,5.677229418373059,7.228304220036919,0.0,0.0,0.0,,0.0,10.387572000000034,12.387701086082812,6.776379621585258,13.855375092352112,12.387701086082812
5.06543493270874,-3.6314419999999927,5.674264588705016,4.712735838277714,5.292349325294998,5.674264588705016,0.0,0.0,0.0,,0.0,77.37292000000002,17.545272560284374,9.697192272872268,13.379032920479435,17.545272560284374
5.066147089004517,8.50453300000001,5.870155382086337,4.974941886622795,4.445002169955194,5.870155382086337,0.0,0.0,0.0,,0.0,0.6488720000000399,17.28014517981657,9.871466210841751,12.118812388718306,17.28014517981657
5.066147089004517,13.448681000000022,5.766738439710719,4.312599604497164,3.1179120591357146,5.766738439710719,0.0,0.0,0.0,,0.0,5.129273000000012,10.065822810146035,3.6326587120381797,10.721649956369946,10.065822810146035
5.076946973800659,-3.2724119999999743,2.8935061508087587,1.1229030856273559,1.2407683045321554,2.8935061508087587,0.0,0.0,0.0,,0.0,12.309880000000021,4.422512565629413,-2.513316089323258,8.812234364621746,4.422512565629413
5.076946973800659,-5.980099999999993,-1.4535584225169185,-2.828100926303252,-0.45524223267636343,-1.4535584225169185,0.0,0.0,0.0,,0.0,68.520577,5.957785833550668,-1.5749503357792225,6.8577363794333595,5.957785833550668
5.091944932937622,-3.276151999999996,-4.3703246738329105,-5.170405759645674,-1.1100133725674428,-4.3703246738329105,0.0,0.0,0.0,,0.0,-13.80958099999998,10.744941203532978,4.703537249537071,7.032218866807158,10.744941203532978
5.091944932937622,1.7764530000000036,-5.000139292017991,-5.657876691604591,-1.0073146049873725,-5.000139292017991,0.0,0.0,0.0,,0.0,-4.616906999999969,8.935591404783846,5.884932172798715,6.472405679205461,8.935591404783846
5.107453107833862,-8.556890999999979,-4.141553308970645,-4.943042072436478,-0.7650196340065323,-4.141553308970645,0.0,0.0,0.0,,0.0,36.574351000000036,-5.750590403923616,-6.343974359597386,0.7168543449989182,-5.750590403923616
5.107453107833862,-6.937513999999993,-2.364370229821148,-2.9421573090957645,-0.5240286410602836,-2.364370229821148,0.0,0.0,0.0,,0.0,0.6376530000000002,-25.88972229342677,-24.95726617295346,-5.445017097575141,-25.88972229342677
5.122657060623169,1.8213320000000124,-0.29085083608925366,0.074192105691682,-0.2879633576205014,-0.29085083608925366,0.0,0.0,0.0,,0.0,-47.330303999999956,-33.70686026008785,-31.374260835071208,-7.258655665149938,-33.70686026008785
5.122657060623169,5.366757000000007,0.5771584215609527,2.153843763489149,-0.4210148479989674,0.5771584215609527,0.0,0.0,0.0,,0.0,-9.508695999999986,-21.23632751439238,-17.915894517184306,-6.543821670030845,-21.23632751439238
5.123321056365967,-2.7787449999999865,-0.942597843552921,1.0639923651231338,-1.3575055231136597,-0.942597843552921,0.0,0.0,0.0,,0.0,-7.511588999999958,-3.272913828079926,-0.20131117499474227,-1.7226638498363676,-3.272913828079926
5.123321056365967,-9.04307799999998,-3.825116080480365,-2.5634536208085086,-2.6389289591735765,-3.825116080480365,0.0,0.0,0.0,,0.0,54.245379000000014,-3.0371377617301434,-0.5530503107218125,0.6829371378220395,-3.0371377617301434
5.137630939483643,-1.484739999999988,-5.478310822164828,-5.171880592622367,-3.5907206020902986,-5.478310822164828,0.0,0.0,0.0,,0.0,-28.208195999999987,-24.25266022118058,-20.668489883441612,-13.084000949947255,-24.25266022118058
5.137630939483643,-4.637474999999995,-4.946698412296906,-4.4354237576245,-4.290536116532558,-4.946698412296906,0.0,0.0,0.0,,0.0,-51.87802199999999,-43.76981907826825,-37.11750071254508,-28.664439303406972,-43.76981907826825
5.13837194442749,-0.38894899999999666,-4.307958217499046,-2.270213769022467,-4.9844080088882485,-4.307958217499046,0.0,0.0,0.0,,0.0,-46.75809899999996,-39.3295375043062,-30.10564792545851,-22.379645132131614,-39.3295375043062
5.13837194442749,-11.657267999999988,-5.659958683914487,-2.1794915852330723,-5.696116189541655,-5.659958683914487,0.0,0.0,0.0,,0.0,57.12510200000003,-18.996947389660292,-9.988495945776801,-9.013921147815433,-18.996947389660292
5.151978015899658,-8.699006999999995,-8.207079675378338,-4.778403704415872,-6.172452672763516,-8.207079675378338,0.0,0.0,0.0,,0.0,-24.40097800000001,-8.742093514295243,-1.2393609002428025,-11.602539814325958,-8.742093514295243
5.151978015899658,-2.408494999999988,-10.005863110517886,-7.7109499949427,-6.5066435984321425,-10.005863110517886,0.0,0.0,0.0,,0.0,-21.266940999999974,-15.939768380693287,-8.178816091447056,-21.418940983868293,-15.939768380693287
5.167639970779419,-11.032703999999995,-10.579161031913573,-8.84836853334417,-7.365428501184553,-10.579161031913573,0.0,0.0,0.0,,0.0,-25.84083899999996,-25.288109888987936,-15.21521871537417,-25.145218906249866,-25.288109888987936
5.167639970779419,-15.142854,-9.831206671188292,-7.469902454299276,-7.660601383150504,-9.831206671188292,0.0,0.0,0.0,,0.0,34.438868000000014,-27.967574385731645,-15.51899227977107,-25.96301151442437,-27.967574385731645
5.1684160232543945,-4.035351999999989,-7.010713818199961,-3.8554695092781004,-5.669521822384692,-7.010713818199961,0.0,0.0,0.0,,0.0,-31.465648999999985,-31.644815569311284,-17.683389637508906,-27.813484255855624,-31.644815569311284
5.1684160232543945,-0.9948129999999935,-3.2352130782549664,0.012647988982706249,-3.178649497529164,-3.2352130782549664,0.0,0.0,0.0,,0.0,-55.823616999999956,-40.507393561655704,-25.67851358657992,-29.803926282177322,-40.507393561655704
5.1819469928741455,3.018100000000004,-2.1643935485010757,0.9725608797066871,-2.7805550518370525,-2.1643935485010757,0.0,0.0,0.0,,0.0,-47.89128899999997,-46.98380656198408,-32.478802345369964,-31.251404306616294,-46.98380656198408
5.1819469928741455,-11.761984999999981,-5.159305775650156,-1.624134972740328,-3.998414923679622,-5.159305775650156,0.0,0.0,0.0,,0.0,32.11639100000002,-45.91479549475474,-32.7831210631346,-30.634863999887063,-45.91479549475474
5.197684049606323,-7.618175999999977,-8.699925810448518,-4.464951971199131,-5.421657792876218,-8.699925810448518,0.0,0.0,0.0,,0.0,-58.78935799999999,-39.13427572115262,-25.790900675130878,-28.23029844522299,-39.13427572115262
5.197684049606323,-4.77959199999998,-9.814359027935405,-5.136622679412994,-7.135707078456382,-9.814359027935405,0.0,0.0,0.0,,0.0,-28.365271000000007,-26.868231845639666,-10.27296161911368,-24.17100636944266,-26.868231845639666
5.198391914367676,-6.297990999999996,-10.449975249287167,-5.769502518688823,-9.600187670271778,-10.449975249287167,0.0,0.0,0.0,,0.0,-14.351865999999973,-12.307155953437217,7.353741583374003,-13.806433453039585,-12.307155953437217
5.198391914367676,-18.587301999999994,-12.449972846998735,-8.181149352410017,-10.874006636567813,-12.449972846998735,0.0,0.0,0.0,,0.0,47.59583700000002,-9.375341834258688,9.972535457880543,-5.110513635446407,-9.375341834258688
5.211961984634399,-10.037891000000002,-12.321011974304993,-8.65930716530009,-8.998512060102145,-12.321011974304993,0.0,0.0,0.0,,0.0,10.836360000000013,-24.024610459804837,-5.5361800947612885,-14.050152974484794,-24.024610459804837
5.211961984634399,-2.1317419999999743,-6.445393722455815,-2.857156688823726,-5.038704783450783,-6.445393722455815,0.0,0.0,0.0,,0.0,-96.48006899999996,-35.05301398143929,-14.002881092770103,-24.863326465392603,-35.05301398143929
5.227715969085693,4.8356910000000255,1.7622930831517627,6.186808706968707,-0.1692014345808998,1.7622930831517627,0.0,0.0,0.0,,0.0,-1.6736050000000091,-19.412626781898012,4.252787358813631,-11.793991488383673,-19.412626781898012
5.227715969085693,3.8109590000000253,5.773814354214922,10.731588239869662,3.806682736661865,5.773814354214922,0.0,0.0,0.0,,0.0,109.83151200000003,11.901384775007413,31.22964843430271,9.454554030899947,11.901384775007413
5.228372097015381,1.982147000000026,4.756056294100806,8.3603725886414,4.464177877518109,4.756056294100806,0.0,0.0,0.0,,0.0,-10.17813799999999,29.94171605453076,38.629710339667184,14.08617008257626,29.94171605453076
5.228372097015381,11.889142000000021,3.2190679588246742,4.00814543241079,3.2964907685190576,3.2190679588246742,0.0,0.0,0.0,,0.0,28.679423000000043,29.222853662691097,28.80424332235164,11.244326388859983,29.222853662691097
5.241933107376099,9.701301,3.837930643216652,2.3220395827450635,2.968855130629717,3.837930643216652,0.0,0.0,0.0,,0.0,36.40979600000003,27.55893120969266,23.535344680681593,14.956478730522335,27.55893120969266
5.241933107376099,-7.457359999999994,5.078210647126149,2.503996663559117,3.0790596871154308,5.078210647126149,0.0,0.0,0.0,,0.0,107.83440500000003,33.66951916836752,27.825580673613878,20.165214961290822,33.66951916836752
5.2577760219573975,11.242140000000006,4.666730788220567,1.215534464560767,2.7379514332741026,4.666730788220567,0.0,0.0,0.0,,0.0,10.619446000000039,36.744886872174945,26.889503053921196,22.11874616911598,36.744886872174945
5.2577760219573975,13.684294000000023,2.6781053969599347,-2.0741032271551205,2.558697649495159,2.6781053969599347,0.0,0.0,0.0,,0.0,28.567226000000005,26.449967619220033,11.48333948226606,22.21871334181893,26.449967619220033
5.258443117141724,-1.1182299999999827,1.505495076257276,-4.047936661182883,3.0843281614367704,1.505495076257276,0.0,0.0,0.0,,0.0,28.039900000000046,10.658695521224493,-7.162636319423166,17.855565152727642,10.658695521224493
5.258443117141724,-4.386901999999992,2.8650762209744136,-2.1639375679117596,3.8779167391524276,2.8650762209744136,0.0,0.0,0.0,,0.0,61.859815000000026,8.42103817851973,-8.992634980876737,14.90544816858709,8.42103817851973
5.272156000137329,11.672228000000018,4.947602211274141,1.0359591870671645,4.8762572901463335,4.947602211274141,0.0,0.0,0.0,,0.0,21.596052000000043,26.08931136740737,9.777209255348822,25.902922120382247,26.08931136740737
5.272156000137329,14.510812000000016,4.791423251300441,1.1602317397474384,5.841632291343718,4.791423251300441,0.0,0.0,0.0,,0.0,25.309773000000007,45.6741448399159,28.169993631134716,37.93502628646769,45.6741448399159
5.287699937820435,3.107857000000024,3.4841200617076717,-1.0871824583508927,5.326517042078044,3.4841200617076717,0.0,0.0,0.0,,0.0,83.51383600000003,44.312634581423254,24.361477900335544,30.02297493579878,44.312634581423254
5.287699937820435,-3.979253,5.2110319683994035,-0.4490096652139641,4.930944515419778,5.2110319683994035,0.0,0.0,0.0,,0.0,72.417553,23.49454145856948,3.9987410542939017,15.413749148913718,23.49454145856948
5.288464069366455,18.763079000000005,10.249074350697375,4.575522062617045,8.13786033243407,10.249074350697375,0.0,0.0,0.0,,0.0,-7.227356999999984,7.969224669049817,-7.329750279316174,14.238946203056537,7.969224669049817
5.288464069366455,19.395122000000015,13.096210462203977,8.49364526230615,11.132745061845382,13.096210462203977,0.0,0.0,0.0,,0.0,13.461770000000001,13.449110901489538,1.2713110735553048,19.235328311534833,13.449110901489538
5.302161931991577,16.044171000000006,9.686413625436828,6.219662175049918,8.191807169780216,9.686413625436828,0.0,0.0,0.0,,0.0,35.23546700000003,27.330841163153824,13.42959751087655,20.001943422516163,27.330841163153824
5.302161931991577,-11.926539999999989,3.0045052396281737,-0.05394225529209651,3.0537017960333683,3.0045052396281737,0.0,0.0,0.0,,0.0,111.20031500000002,28.11301951447592,10.76527179507955,18.02003813636031,28.11301951447592
5.317625045776367,9.323571000000015,-1.0395369562845247,-4.146076096387391,1.047000147046109,-1.0395369562845247,0.0,0.0,0.0,,0.0,-18.525594999999953,14.141357826709571,-2.303340000134556,14.313837704178075,14.141357826709571
5.317625045776367,9.510566000000011,-0.455069482022363,-3.2055608916187124,1.4270642123466473,-0.455069482022363,0.0,0.0,0.0,,0.0,7.612566000000015,2.7490313541495537,-7.696796265530518,10.704055594803988,2.7490313541495537
5.318356037139893,1.1481500000000153,2.595458089490265,0.7764473139438874,2.707869583022534,2.595458089490265,0.0,0.0,0.0,,0.0,12.10792600000002,5.80451808712345,1.122760390189069,10.85137862593062,5.80451808712345
5.318356037139893,-2.255158999999992,5.758045829414066,4.684346225446431,4.235512003860908,5.758045829414066,0.0,0.0,0.0,,0.0,98.903524,17.217545823933644,13.856956662673246,12.39856342405828,17.217545823933644
5.331974983215332,19.49235900000002,7.97226921587981,6.760822353423973,5.2419310390346405,7.97226921587981,0.0,0.0,0.0,,0.0,-4.549588999999969,24.570472072179925,18.72514515118113,11.377382662599647,24.570472072179925
5.331974983215332,10.082771000000008,8.403535179655014,6.394923966730262,5.194526934742721,8.403535179655014,0.0,0.0,0.0,,0.0,29.648056999999994,24.053955386645526,14.75186331951586,9.288107313059498,24.053955386645526
5.347721099853516,13.620716000000016,6.24922842340974,3.5618614596517784,3.6159882780264336,6.24922842340974,0.0,0.0,0.0,,0.0,28.896337000000017,20.832926641417785,9.107845062677384,8.466431614285232,20.832926641417785
5.347721099853516,-9.682600999999977,2.1600753823176393,-0.6439101415302142,1.6916004366219828,2.1600753823176393,0.0,0.0,0.0,,0.0,92.61675200000002,19.704487777383978,7.700705369149201,8.258758581697402,19.704487777383978
5.348498106002808,9.390889000000016,-1.0002325321459342,-3.5043414761215423,0.8609700343635429,-1.0002325321459342,0.0,0.0,0.0,,0.0,2.3804460000000063,19.371185095315305,9.869874873276546,7.7740321737636044,19.371185095315305
5.348498106002808,6.413929000000024,-0.3313086438593684,-2.526264711264378,0.8842203337160598,-0.3313086438593684,0.0,0.0,0.0,,0.0,8.278268000000025,15.703786254953549,10.797296130578173,7.255982803541605,15.703786254953549
5.3620240688323975,4.413082000000003,3.4342775433870596,1.2909819991749756,1.656090171651078,3.4342775433870596,0.0,0.0,0.0,,0.0,35.88995,8.671248212187912,7.864538186071332,6.967463568300736,8.671248212187912
5.3620240688323975,-2.520691999999997,5.669977917797982,3.4389976731301486,2.265032087981712,5.669977917797982,0.0,0.0,0.0,,0.0,51.922901000000024,3.5257288828378526,3.4582373188009905,6.81243084535419,3.5257288828378526
5.379638910293579,13.631936000000024,2.923998280719254,0.8214287002850305,1.0168442164374303,2.923998280719254,0.0,0.0,0.0,,0.0,11.681577000000004,4.405736055238617,1.617939267446146,6.703560535838379,4.405736055238617
5.379638910293579,4.042832000000004,-2.422061888616981,-4.119143947508445,-0.6859980420337485,-2.422061888616981,0.0,0.0,0.0,,0.0,-11.898491999999976,9.065729837562685,3.6974559012470882,6.696452890100875,9.065729837562685
5.379648923873901,-4.723492999999991,-4.886552314971621,-6.18823640412397,-0.48337191173998273,-4.886552314971621,0.0,0.0,0.0,,0.0,30.620430999999996,11.529601184983049,7.492149721893703,6.823709714908686,11.529601184983049
5.379648923873901,-11.515150999999975,-3.025046080554571,-4.224371535508499,0.4017574333180106,-3.025046080554571,0.0,0.0,0.0,,0.0,87.48187000000001,9.003316760258533,9.58653003647447,7.103488962898734,9.003316760258533
5.392067909240723,10.711074000000025,-0.6945384168649323,-1.9668443683834953,0.02947917589953082,-0.6945384168649323,0.0,0.0,0.0,,0.0,-22.04110099999997,4.8724772749698175,9.007034310293555,7.6056894451319845,4.8724772749698175
5.392067909240723,6.241894000000002,-0.8619228067591438,-1.954251656374463,-0.9026578140980316,-0.8619228067591438,0.0,0.0,0.0,,0.0,3.263061999999991,4.4028403077310685,8.830514170240988,8.201034081708679,4.4028403077310685
5.407676935195923,-2.255158999999992,-2.0681726617193283,-2.585290727776579,-1.3197443470122312,-2.0681726617193283,0.0,0.0,0.0,,0.0,28.77292,8.5986940257168,12.787895150529602,8.743305537282428,8.5986940257168
5.407676935195923,-12.734358999999984,-2.3537571455767616,-2.2938168542001773,-1.5696936430442283,-2.3537571455767616,0.0,0.0,0.0,,0.0,73.12813400000005,13.960728499993795,19.985043979523805,9.406963647032471,13.960728499993795
5.408318996429443,12.423948000000024,-2.6171094358251494,-2.389524593720688,-2.090306476961321,-2.6171094358251494,0.0,0.0,0.0,,0.0,18.723809000000017,17.34427626782096,25.632772522565432,10.19565382435979,17.34427626782096
5.408318996429443,-1.1668479999999875,-3.931386948478992,-3.8748544277606367,-2.651976425988326,-3.931386948478992,0.0,0.0,0.0,,0.0,-6.374660000000006,18.693684481509614,27.250900562812483,11.234553648282816,18.693684481509614
5.422006130218506,-2.6852480000000014,-5.023823748797436,-5.168903943852515,-3.012923393651561,-5.023823748797436,0.0,0.0,0.0,,0.0,49.52562499999999,18.931090076421984,26.810883740578777,12.621999835339086,18.931090076421984
5.422006130218506,-13.216805999999991,-4.640007594680213,-4.922970933073843,-3.0797759486946785,-4.640007594680213,0.0,0.0,0.0,,0.0,79.097014,17.169468273186066,25.61744118755846,13.21184941007751,17.169468273186066
5.437721014022827,5.980101000000019,-3.732989633994666,-4.1674107469430295,-2.7405482690907155,-3.732989633994666,0.0,0.0,0.0,,0.0,1.1874180000000365,11.420761862935885,21.154530118666884,12.944998390541482,11.420761862935885
5.437721014022827,2.023286000000013,-3.476161458630522,-4.017802627346807,-2.054518247384396,-3.476161458630522,0.0,0.0,0.0,,0.0,-8.577460999999971,2.078137420462334,12.035782221604158,11.888829060365856,2.078137420462334
5.438414096832275,2.4870340000000226,-3.00875309234956,-3.3846445950321202,-1.1928995819737365,-3.00875309234956,0.0,0.0,0.0,,0.0,8.023955,-5.438820892700571,3.9211526023813743,7.261143075112245,-5.438820892700571
5.438414096832275,-14.806263000000001,-0.9287941959020731,-0.7834318564333808,-0.17845276214666936,-0.9287941959020731,0.0,0.0,0.0,,0.0,83.528795,-3.1688317297498116,5.796156782138823,3.6936207616278143,-3.1688317297498116
5.451937913894653,11.941501000000017,1.869855790040543,2.5671418258644794,1.0058571831195398,1.869855790040543,0.0,0.0,0.0,,0.0,-29.580738999999994,9.734810900840067,17.807904498522163,10.66825361379859,9.734810900840067
5.451937913894653,12.33793,2.9857123256459093,3.698866411787376,2.1354545164964485,2.9857123256459093,0.0,0.0,0.0,,0.0,20.63489800000002,20.140600804265357,25.438167024107585,18.72128049339759,20.140600804265357
5.470036029815674,5.0039870000000235,2.3567620321310483,2.414980957621461,2.8960380038393634,2.3567620321310483,0.0,0.0,0.0,,0.0,43.34730999999999,12.981205726242822,14.432780674193635,12.382418423488023,12.981205726242822
5.470036029815674,-11.99759899999998,2.6213657026435753,2.0345287248923953,3.2706426679307334,2.6213657026435753,0.0,0.0,0.0,,0.0,47.86510900000002,-7.176011126222264,-7.985703471498562,1.352869294533683,-7.176011126222264
5.470043897628784,15.389689000000004,4.476975765525998,4.122169029379209,3.430195981199776,4.476975765525998,0.0,0.0,0.0,,0.0,-31.43572899999998,-18.22031847057022,-18.827016329095276,0.7350972618911444,-18.22031847057022
5.470043897628784,14.118123000000026,4.983365190679316,5.670447995567778,3.203018355479011,4.983365190679316,0.0,0.0,0.0,,0.0,-15.571073999999953,-9.179780887063277,-9.86300671168544,4.966658001896893,-9.179780887063277
5.481935024261475,5.381717000000009,2.4154035102875273,3.913605800380977,2.189730428570698,2.4154035102875273,0.0,0.0,0.0,,0.0,14.722116000000028,4.978709386253325,2.139337437054973,5.4095678472864215,4.978709386253325
5.481935024261475,-17.19605999999999,-0.8054350539179174,0.6581572679575114,0.7648840238805444,-0.8054350539179174,0.0,0.0,0.0,,0.0,83.55123500000002,5.206707034394493,0.3663128742946755,4.347483606141817,5.206707034394493
5.497622013092041,10.467980000000011,-2.350230284371119,-1.2393216669494542,0.03332750562690387,-2.350230284371119,0.0,0.0,0.0,,0.0,-10.12951899999996,-4.491084557638189,-8.329086429872024,4.6290223111869135,-4.491084557638189
5.497622013092041,3.3546910000000025,-3.3438059031709213,-2.141705021167481,-0.4039792764296502,-3.3438059031709213,0.0,0.0,0.0,,0.0,-45.19482099999999,-5.125408128995097,-6.209266745902122,5.337700810511434,-5.125408128995097
5.4983320236206055,-0.3814689999999814,-4.76430667239277,-3.204116506683245,-2.0364661796290404,-4.76430667239277,0.0,0.0,0.0,,0.0,35.411242000000016,6.114217520397184,6.50937993771764,5.782319427118581,6.114217520397184
5.4983320236206055,-21.470764999999986,-4.212590099626975,-2.88895174954065,-2.799573961770773,-4.212590099626975,0.0,0.0,0.0,,0.0,97.5609,11.72259339193541,12.344471965015648,5.257566993211105,11.72259339193541
5.5120038986206055,13.792752000000007,0.305688275838355,0.6331802771443771,0.1937021072258022,0.305688275838355,0.0,0.0,0.0,,0.0,-22.871357999999987,3.36848432769232,4.724508583435181,3.212978327224273,3.36848432769232
5.5120038986206055,10.419362000000007,6.027318597180311,5.579174600732729,4.161547713682747,6.027318597180311,0.0,0.0,0.0,,0.0,-32.48664099999996,-6.254500431155703,-4.557428137644649,0.14330813318257657,-6.254500431155703
5.527830123901367,13.134529000000015,8.179000270566114,7.990986016719257,5.722142010857434,8.179000270566114,0.0,0.0,0.0,,0.0,23.23786799999999,-7.64823386298943,-8.25230588011875,-3.3708109913441118,-7.64823386298943
5.527830123901367,-8.79250399999998,5.455565778258178,6.167310534398792,4.784472327677553,5.455565778258178,0.0,0.0,0.0,,0.0,57.33079600000002,-8.23715804496512,-12.685202771714113,-5.266279259810368,-8.23715804496512
5.528448104858398,6.312952000000024,0.2597811057484464,1.6472476814297905,1.601424551828898,0.2597811057484464,0.0,0.0,0.0,,0.0,-18.166563999999994,-12.30624406141601,-18.15032288626967,-4.261880676405771,-12.30624406141601
5.528448104858398,7.936068000000006,-4.623128891219391,-3.031315393600603,-1.7034474726716422,-4.623128891219391,0.0,0.0,0.0,,0.0,-38.22738799999996,-8.093617798351396,-11.440709009887495,-1.1403679293795737,-8.093617798351396
5.54197096824646,-8.313796999999994,-6.953010683050264,-5.55704661002493,-2.978440229224564,-6.953010683050264,0.0,0.0,0.0,,0.0,32.026633000000004,10.851979390336338,11.279302329019185,4.997292531280376,10.851979390336338
5.54197096824646,-18.88275399999999,-4.834549537907561,-4.264198636392102,-1.9362994830152445,-4.834549537907561,0.0,0.0,0.0,,0.0,93.01318200000003,26.847190217630803,29.413803120074903,9.634984522074477,26.847190217630803
5.557998895645142,10.841970000000003,1.079901523989483,0.1742415200756665,2.029032180738733,1.079901523989483,0.0,0.0,0.0,,0.0,17.089472999999998,19.06390650065474,21.31194917422511,4.86707779063848,19.06390650065474
5.557998895645142,14.439754000000022,6.524302928630215,4.482726395836593,5.831680486937573,6.524302928630215,0.0,0.0,0.0,,0.0,-27.228341999999998,-4.137443369823927,-3.643488629787896,-2.155779436573808,-4.137443369823927
5.5584259033203125,6.795399000000003,7.442532928748653,5.593042171943531,5.264525847660475,7.442532928748653,0.0,0.0,0.0,,0.0,-9.875205999999991,-13.703549323932016,-14.972317678715005,0.0982332062582622,-13.703549323932016
5.5584259033203125,-8.007125000000002,4.131808036715052,3.500390752075414,2.4061960055902145,4.131808036715052,0.0,0.0,0.0,,0.0,76.55388200000004,0.14602605839246297,-2.2381113671655055,5.8664189299123946,0.14602605839246297
5.572061061859131,7.300285000000002,0.23413421392562173,0.38468320406920964,0.24861353037488315,0.23413421392562173,0.0,0.0,0.0,,0.0,6.599053000000026,16.209048000276137,13.164809550822337,6.117342301079239,16.209048000276137
5.572061061859131,6.529865999999998,-1.2329608266171306,-1.314835559254637,-0.7047654086869432,-1.2329608266171306,0.0,0.0,0.0,,0.0,-7.593866999999989,14.978728493185066,11.439171694164155,3.750306962314238,14.978728493185066
5.5875749588012695,1.009773000000024,0.11946263803870796,-0.41030902717384166,0.3817644013828318,0.11946263803870796,0.0,0.0,0.0,,0.0,21.981262000000015,4.228906585860873,0.7792050974752058,2.9756134501309126,4.228906585860873
5.5875749588012695,-14.114381999999978,2.645987578781476,2.1421272328390915,2.19161625403485,2.645987578781476,0.0,0.0,0.0,,0.0,58.026418000000035,1.5386460502029062,-1.1734530270136259,2.8998532857608015,1.5386460502029062
5.588328123092651,16.332144,4.197773324835388,3.7640328734053288,2.3915102378124296,4.197773324835388,0.0,0.0,0.0,,0.0,-5.147972999999979,6.1521717133550915,3.804422115182593,2.725038010460957,6.1521717133550915
5.588328123092651,8.31379800000002,3.9167876824449803,2.9994879712451255,1.9260991084392012,3.9167876824449803,0.0,0.0,0.0,,0.0,2.526302000000044,4.1705174231872455,1.0558104085059328,2.551462604837981,4.1705174231872455
5.618505954742432,2.1654029999999977,2.969200554266153,1.3276342259164042,2.4019907001480147,2.969200554266153,0.0,0.0,0.0,,0.0,-17.28020799999996,-5.971208851254088,-10.216124568285629,1.7666232656836809,-5.971208851254088
5.618505954742432,-10.535297999999983,2.9295467047986943,1.157517115105704,3.306154885686236,2.9295467047986943,0.0,0.0,0.0,,0.0,69.66872599999999,-10.619615814996076,-15.455196826919467,1.0408908681377735,-10.619615814996076
5.619085073471069,11.862963000000008,3.9573499774318335,2.955851135314074,3.8968205708123373,3.9573499774318335,0.0,0.0,0.0,,0.0,-21.124824999999987,-2.794854264497704,-8.382918088638597,1.9700041181208168,-2.794854264497704
5.619085073471069,12.513706000000013,5.378302824974816,5.583078390243438,4.315387939620908,5.378302824974816,0.0,0.0,0.0,,0.0,-21.188402999999994,6.994181871556942,-0.14708971434489193,2.939782220488405,6.994181871556942
5.61984395980835,3.0442790000000173,6.917711567652786,8.05447900645936,4.7464854743379234,6.917711567652786,0.0,0.0,0.0,,0.0,34.32667100000003,5.654874493719333,-2.757163220746781,1.3119265364841726,5.654874493719333
5.61984395980835,-3.474367000000001,8.13534484648619,9.444304069211817,5.0080371562988395,8.13534484648619,0.0,0.0,0.0,,0.0,50.96922599999999,-4.905841213216386,-13.154702346192593,-1.063328165977382,-4.905841213216386
5.632088899612427,13.474860000000007,7.894239246533056,8.60404181224233,4.939994017543087,7.894239246533056,0.0,0.0,0.0,,0.0,-34.868956999999966,-10.877056005039675,-18.504452920906452,-1.420388129175812,-10.877056005039675
5.632088899612427,13.796491000000003,5.923840300308483,6.000078763903942,4.61171567025042,5.923840300308483,0.0,0.0,0.0,,0.0,-9.071127999999987,-4.3137480473532746,-12.498345963470634,-0.8081242917116197,-4.3137480473532746
5.647871017456055,-0.07853699999998298,3.920509143173445,3.999039732956244,4.113505416160836,3.920509143173445,0.0,0.0,0.0,,0.0,2.8666330000000357,7.789775695931547,-1.808302957795962,-0.8084923984899278,7.789775695931547
5.647871017456055,-10.95790599999998,3.579954828527937,3.9963744284442257,3.6047245408164486,3.579954828527937,0.0,0.0,0.0,,0.0,89.75198900000004,12.398253086138801,1.9984286526071529,-1.2882786438058067,12.398253086138801
5.648483991622925,14.282678000000004,4.333236132023998,4.76081191090992,3.2446902318606963,4.333236132023998,0.0,0.0,0.0,,0.0,-16.573366999999962,4.683808073988154,-5.351698835843098,-2.00092903551805,4.683808073988154
5.648483991622925,4.342024000000009,4.457347328143018,4.417234429762834,3.020445334495293,4.457347328143018,0.0,0.0,0.0,,0.0,-40.026279999999986,-8.031135753589325,-17.006551161830963,-2.9084135007936456,-8.031135753589325
5.661976099014282,8.310057999999998,3.6944759875198385,3.4641420082875127,2.887699269630676,3.6944759875198385,0.0,0.0,0.0,,0.0,16.973536000000024,-15.257729028798954,-22.562675426316666,-3.9102533401787416,-15.257729028798954
5.661976099014282,-18.419006999999993,3.0736460328794575,3.5169275139115954,2.6882708192251528,3.0736460328794575,0.0,0.0,0.0,,0.0,17.310127000000023,-14.03873799778483,-19.107523126823263,-4.751735292455829,-14.03873799778483
5.677803993225098,12.345410000000015,2.4783058482000677,3.8876272341519993,2.362703746531531,2.4783058482000677,0.0,0.0,0.0,,0.0,9.744309000000044,-9.215010188835738,-12.391179029668447,-5.1351563879246545,-9.215010188835738
5.677803993225098,3.5903040000000033,0.6959544754129285,2.490485959441342,2.0200715064206927,0.6959544754129285,0.0,0.0,0.0,,0.0,-55.55808400000001,-6.10020864867186,-8.514654698494494,-5.2430594169428355,-6.10020864867186
5.678460121154785,0.9125360000000171,-1.5595576783540166,-0.07798924361363135,1.4335701376881766,-1.5595576783540166,0.0,0.0,0.0,,0.0,-1.0565219999999726,-7.349304894946566,-9.275931379997871,-5.291729292434069,-7.349304894946566
5.678460121154785,-25.88010699999998,-1.470287447244633,-0.44250012519395887,1.0867399708018122,-1.470287447244633,0.0,0.0,0.0,,0.0,74.85222700000003,-12.883359605662537,-12.986349177679838,-5.188067339651438,-12.883359605662537
5.692086935043335,14.361216000000013,1.6168237760964657,2.554928389695676,2.167192758072277,1.6168237760964657,0.0,0.0,0.0,,0.0,-51.548910999999976,-16.474885590942183,-13.681317988440306,-5.199061067872762,-16.474885590942183
5.692086935043335,7.188088000000022,4.555135859599078,5.818411223913278,3.419739885560278,4.555135859599078,0.0,0.0,0.0,,0.0,-42.64794899999998,-9.31197073320669,-4.948614283985733,-5.114575548232072,-9.31197073320669
5.707763910293579,0.5273260000000164,4.66414649875372,6.207313151530528,2.680257159445954,4.66414649875372,0.0,0.0,0.0,,0.0,25.86701800000003,5.433218515159164,8.607029234910868,-3.881100021106096,5.433218515159164
5.707763910293579,-12.502484999999979,3.153764967290499,4.360024477882642,1.6903328190173612,3.153764967290499,0.0,0.0,0.0,,0.0,77.59731400000004,11.264363604871061,12.024405148738238,-2.7897207427166415,11.264363604871061
5.7083740234375,9.749920000000003,2.9493666818467927,3.2683597959682484,2.7922565418942304,2.9493666818467927,0.0,0.0,0.0,,0.0,-39.82432499999999,0.3586004756619132,-0.1958741124595783,-4.30299426330253,0.3586004756619132
5.7083740234375,5.247080000000011,4.932316072194302,4.621407727077725,4.802763660910009,4.932316072194302,0.0,0.0,0.0,,0.0,-3.401438999999982,-13.006193513064188,-13.551825838290448,-6.113459512287001,-13.006193513064188
5.7221360206604,7.78273200000001,7.341491313400164,7.363684769845172,6.191118771327522,7.341491313400164,0.0,0.0,0.0,,0.0,-56.014351999999974,-11.829834043311767,-12.695998754963975,-4.2681837505147175,-11.829834043311767
5.7221360206604,-12.001337999999976,7.916712442643312,8.809550211666929,6.069749871959414,7.916712442643312,0.0,0.0,0.0,,0.0,105.11175800000001,-1.4632010567395022,-3.7727843889416515,-0.6208288026896114,-1.4632010567395022
5.737626075744629,13.916167999999999,5.768231846183529,7.012498527968235,3.7531634605863107,5.768231846183529,0.0,0.0,0.0,,0.0,-44.297244999999975,-0.30437176019029427,-4.002131584415584,0.7550232707535499,-0.30437176019029427
5.737626075744629,1.4099429999999984,1.236052078394056,2.160749510128558,-0.1779719361132307,1.236052078394056,0.0,0.0,0.0,,0.0,-22.422570000000007,-8.836446055520533,-12.231407740801533,1.945984113762235,-8.836446055520533
5.738470077514648,-9.540483999999992,-4.990857860395785,-4.377114870285423,-4.832336609196642,-4.990857860395785,0.0,0.0,0.0,,0.0,-18.536813999999993,-7.852995140216093,-9.234814605862038,5.7450912208134515,-7.852995140216093
5.738470077514648,-23.763323999999983,-11.225144163527782,-10.528039538964299,-8.45850753484499,-11.225144163527782,0.0,0.0,0.0,,0.0,80.09182700000002,8.276331770693893,8.98524806902544,6.849184147224111,8.276331770693893
5.752057075500488,-12.607202000000001,-14.011528072742449,-13.368050574442947,-9.743179433074104,-14.011528072742449,0.0,0.0,0.0,,0.0,-10.342693999999995,16.411579107599838,18.606278865560945,4.1014436532520735,16.411579107599838
5.752057075500488,-10.494158999999996,-10.994006311988997,-11.095810904167772,-9.01693375923721,-10.994006311988997,0.0,0.0,0.0,,0.0,-34.135936999999956,-4.25509239730398,-0.16239438119735983,-2.0752468222429385,-4.25509239730398
5.767719030380249,-7.090849999999989,-5.136866200267979,-5.911119237603251,-5.958959128945044,-5.136866200267979,0.0,0.0,0.0,,0.0,-16.56214699999998,-37.19547968887752,-29.92517258985397,-22.022160343015308,-37.19547968887752
5.767719030380249,-20.44977199999998,-2.829729111370546,-3.0662553956157748,-3.4781997354853385,-2.829729111370546,0.0,0.0,0.0,,0.0,1.4866100000000415,-43.174902540533246,-32.74431895000259,-36.57794891611613,-43.174902540533246
5.768465995788574,-1.0845709999999826,-6.405711542172307,-4.7889609023680215,-5.871031787684326,-6.405711542172307,0.0,0.0,0.0,,0.0,-48.747726,-12.20171376753501,-0.8642867240520449,-9.557043941640826,-12.20171376753501
5.768465995788574,-13.029810999999995,-11.343204449955884,-8.001075762941085,-9.435115216320062,-11.343204449955884,0.0,0.0,0.0,,0.0,6.973043000000018,17.117824406671126,27.43548146152241,22.904206342519455,17.117824406671126
5.782202959060669,-16.481738999999976,-12.126452573428361,-8.889056847813052,-9.314146031316325,-12.126452573428361,0.0,0.0,0.0,,0.0,22.13459800000004,4.267151030005339,13.68415530191681,6.014798355201615,4.267151030005339
5.782202959060669,-22.368340999999987,-8.159532281423132,-6.460806394650723,-6.617274074570689,-8.159532281423132,0.0,0.0,0.0,,0.0,-14.217229999999972,-40.05451541572845,-30.420745185637813,-29.198432297662297,-40.05451541572845
5.7977259159088135,-2.5281719999999837,-2.8951861306398063,-1.9788274304933333,-2.4900039989716807,-2.8951861306398063,0.0,0.0,0.0,,0.0,-69.294737,-66.75590739068267,-56.18336597084197,-38.929374935239004,-66.75590739068267
5.7977259159088135,0.05609900000001744,-0.03740258224201054,2.072932456435253,0.4304844999736694,-0.03740258224201054,0.0,0.0,0.0,,0.0,-91.77153499999997,-47.851550774826265,-36.99108863087358,-30.232703125795254,-47.851550774826265
5.798382997512817,-4.379421999999977,-1.576295039299148,2.678701088293079,-1.1341362664315167,-1.576295039299148,0.0,0.0,0.0,,0.0,4.082101000000023,-5.059740190978596,3.7824118597693257,-12.37509630442355,-5.059740190978596
5.798382997512817,-24.567401999999987,-6.709654245061295,-1.2252376055002072,-4.719924450931608,-6.709654245061295,0.0,0.0,0.0,,0.0,85.50346200000001,21.601400158908298,25.906825102402244,5.638943981284557,21.601400158908298
5.812067031860352,-12.259391999999991,-11.55192741108787,-6.612274262021495,-7.527564806365206,-11.55192741108787,0.0,0.0,0.0,,0.0,-4.2915349999999535,19.632563832035697,19.220579252898823,8.625221897399033,19.632563832035697
5.812067031860352,-7.651834999999977,-11.799744989239993,-8.769641525474512,-7.909704157382986,-11.799744989239993,0.0,0.0,0.0,,0.0,-41.294106,8.295974055182759,5.916322708016122,3.2557758629044886,8.295974055182759
5.827716112136841,-13.84510899999998,-6.5971549019357205,-5.945865851169276,-3.39014673776738,-6.5971549019357205,0.0,0.0,0.0,,0.0,7.500369000000035,4.970028946449601,3.4945805368083187,2.2572430244448523,4.970028946449601
5.827716112136841,-18.355428999999987,0.674427192892534,-0.6495401479103287,2.364949556303166,0.674427192892534,0.0,0.0,0.0,,0.0,104.99208100000004,7.269219710664333,6.9783257785482595,2.7952120916951344,7.269219710664333
5.828334093093872,7.775252000000023,5.47308994590204,3.5060780160814895,4.0641847910224245,5.47308994590204,0.0,0.0,0.0,,0.0,-61.25395199999997,8.424171170334358,7.3189236272301414,1.3012048202438595,8.424171170334358
5.828334093093872,8.231520000000017,6.075912071872013,5.274923450336147,3.2203733822253375,6.075912071872013,0.0,0.0,0.0,,0.0,-25.597745999999972,7.1789170953646755,3.09284956798042,-0.4091392208136634,7.1789170953646755
5.842106103897095,-2.935820999999976,4.564238437096101,5.911892974845647,2.224725162003815,4.564238437096101,0.0,0.0,0.0,,0.0,25.481808,1.2382488616428537,-6.532327636508583,-2.0545654500107684,1.2382488616428537
5.842106103897095,-18.860314999999986,3.7125063887422662,6.569798979479664,1.773840893618684,3.7125063887422662,0.0,0.0,0.0,,0.0,62.577876,-7.120147118035109,-17.414757842651277,-0.7118695877215638,-7.120147118035109
5.857732057571411,12.289312000000024,4.024009738954536,7.132060002474411,2.865341930245556,4.024009738954536,0.0,0.0,0.0,,0.0,-81.378353,-3.8960601961743153,-14.706780387738142,6.919786452426113,-3.8960601961743153
5.857732057571411,0.6956220000000144,4.716951814086862,7.559112167192197,4.523407770813257,4.716951814086862,0.0,0.0,0.0,,0.0,16.823939999999993,16.454101292106333,6.281496334664457,15.844951350727158,16.454101292106333
5.858386039733887,-1.3052249999999788,5.586009352440649,7.972308825067703,5.304890768502722,5.586009352440649,0.0,0.0,0.0,,0.0,34.39399000000003,34.15653598364721,24.447248198181242,21.838436608379183,34.15653598364721
5.858386039733887,-13.190626999999978,6.194055728281649,7.301214001955434,5.054927355716724,6.194055728281649,0.0,0.0,0.0,,0.0,82.23853000000003,28.465705096511698,18.61995015430219,22.413102380942675,28.465705096511698
5.872313022613525,9.293652000000009,5.193931828131754,4.074556874988615,3.277957078751287,5.193931828131754,0.0,0.0,0.0,,0.0,-23.454782999999964,7.516628726311771,-2.9193562078508872,9.671506521473088,7.516628726311771
5.872313022613525,-3.0779369999999915,2.111329805842782,-1.0081287397980878,0.7557007233141178,2.111329805842782,0.0,0.0,0.0,,0.0,-48.30267799999996,-5.356733472750289,-16.514879044332023,-8.486834583605548,-5.356733472750289
5.887665033340454,-4.285924999999992,-1.7034579843949118,-5.383809619420926,-1.162701377187052,-1.7034579843949118,0.0,0.0,0.0,,0.0,7.096460000000036,-6.831871365483206,-17.697973591945654,-11.18893873334956,-6.831871365483206
5.887665033340454,-27.607940999999983,-5.217792017607414,-8.088882908701317,-4.305935604514899,-5.217792017607414,0.0,0.0,0.0,,0.0,37.56168500000001,-17.23287233728837,-25.495467789528185,-15.242483691190015,-17.23287233728837
5.888402938842773,-10.228625999999991,-9.853732589478495,-11.001062411824932,-9.001755921449076,-9.853732589478495,0.0,0.0,0.0,,0.0,-85.52216199999998,-49.254655529189556,-52.06362498698242,-47.779560972437366,-49.254655529189556
5.888402938842773,-16.03669099999999,-17.529221404486105,-16.12915965473992,-14.294691986307985,-17.529221404486105,0.0,0.0,0.0,,0.0,-127.19212799999997,-83.69881219917221,-78.57981846320396,-75.73621716340556,-83.69881219917221
5.902148962020874,-32.776482999999985,-25.516539937024326,-20.426025835835382,-22.414749861236256,-25.516539937024326,0.0,0.0,0.0,,0.0,-40.665801999999985,-80.89384354928087,-66.57091395609848,-65.36876948460572,-80.89384354928087
5.902148962020874,-45.52206199999999,-25.44330051472711,-15.69476945737231,-25.05027584356179,-25.44330051472711,0.0,0.0,0.0,,0.0,-16.090919999999983,-19.804790862703584,3.414222201337772,-23.29833377128188,-19.804790862703584
5.917726993560791,-15.629041,-11.476896514086114,0.5317679841825971,-10.692264450307958,-11.476896514086114,0.0,0.0,0.0,,0.0,58.759438000000046,70.70340948075105,98.12678520849298,50.02419709848153,70.70340948075105
5.917726993560791,13.91990800000002,10.34986570929983,17.90942798788077,9.217774880926418,10.34986570929983,0.0,0.0,0.0,,0.0,107.15000300000003,129.4634986357833,148.6311501326624,112.51653003705218,129.4634986357833
5.918421983718872,16.305964000000017,25.259931925224347,21.522047573034886,20.11524385398477,25.259931925224347,0.0,0.0,0.0,,0.0,123.628003,122.2286021007183,122.16201596235135,103.46302962003719,122.2286021007183
5.918421983718872,2.5132130000000075,24.365779278720694,7.8824464909536935,22.1805104544622,24.365779278720694,0.0,0.0,0.0,,0.0,102.55366600000002,72.92896311411432,54.81261401745961,57.08355603397348,72.92896311411432
5.9319679737091064,18.362909000000002,13.755105081035575,-9.083751062772285,15.402412278851783,13.755105081035575,0.0,0.0,0.0,,0.0,15.19708300000002,27.75611946326169,4.141793591008458,31.40204611012601,27.75611946326169
5.9319679737091064,-1.0808309999999892,6.477954638335622,-13.06394514231291,6.260307436993344,6.477954638335622,0.0,0.0,0.0,,0.0,-38.006733999999994,4.655612291357652,-11.092663585490897,16.891463478068385,4.655612291357652
5.94769811630249,-2.4122349999999813,7.2817860994688575,-2.3441695512085508,5.953240264737052,7.2817860994688575,0.0,0.0,0.0,,0.0,-4.987156999999968,-9.3483157099977,-14.864693562285677,-3.9979273402885895,-9.3483157099977
5.94769811630249,-1.2005069999999876,9.555935069643958,11.07379330722609,8.83555193994018,9.555935069643958,0.0,0.0,0.0,,0.0,34.91009600000001,-25.331197486863235,-28.017271596036565,-20.528267176767525,-25.331197486863235
5.948455095291138,0.18325600000000009,6.718782829791232,16.5132776890946,4.91344726495236,6.718782829791232,0.0,0.0,0.0,,0.0,-92.70276999999999,-34.6974211860708,-39.91111815694428,-25.683707297140216,-34.6974211860708
5.948455095291138,-6.578483999999975,0.20295993407031665,13.411968497609541,-1.3384420038913505,0.20295993407031665,0.0,0.0,0.0,,0.0,-21.192142999999987,-23.72404853878976,-28.358550680054854,-21.010166710006207,-23.72404853878976
5.961956977844238,-4.4467409999999745,-5.040528839424253,6.354237539494866,-3.426281991705685,-5.040528839424253,0.0,0.0,0.0,,0.0,-32.98404799999997,3.257180388015299,4.397499947367194,-3.8398579635716383,3.257180388015299
5.961956977844238,-30.442784999999986,-6.644545352942828,-1.0151478229608486,-3.0061301416969255,-6.644545352942828,0.0,0.0,0.0,,0.0,89.18726400000003,21.994467403338355,28.51776791250878,13.201568219098764,21.994467403338355
5.994165897369385,-10.942946999999975,-4.909084711586692,-6.189409867682265,-2.682723796219181,-4.909084711586692,0.0,0.0,0.0,,0.0,-3.8203079999999545,14.118314885706118,22.6566105543028,9.744187261022915,14.118314885706118
5.994165897369385,3.5342060000000117,-1.4956772679730281,-7.56269623296103,-2.0099797843296465,-1.4956772679730281,0.0,0.0,0.0,,0.0,-67.28640999999999,-8.167499961411009,2.6214577861621855,-0.6401132708322171,-8.167499961411009
5.994787931442261,-9.136574999999993,1.13101540420022,-5.697726190917097,-0.37912786962316686,1.13101540420022,0.0,0.0,0.0,,0.0,1.7035240000000158,-14.76753436355622,0.9962307751485397,4.563171117673749,-14.76753436355622
5.994787931442261,-24.96757199999999,1.3981081555299908,-2.996823211540939,1.0283410253569099,1.3981081555299908,0.0,0.0,0.0,,0.0,41.320284000000015,2.9723883965389097,22.248361634828115,14.305751575204308,2.9723883965389097
5.995567083358765,6.582224000000025,-0.20542857903048073,-1.7672460627838409,1.024652419573576,-0.20542857903048073,0.0,0.0,0.0,,0.0,-11.939630999999963,20.22527519322605,36.00228691352022,14.222284085326825,20.22527519322605
5.995567083358765,-9.820977,-2.161910855554039,-2.555380113317533,0.06241031748152366,-2.161910855554039,0.0,0.0,0.0,,0.0,5.301308000000006,13.657853745113325,19.901858415829437,9.415050604046609,13.657853745113325
5.996233940124512,-11.189779999999985,-3.391763836377873,-3.859345802534754,-1.2354500526834489,-3.391763836377873,0.0,0.0,0.0,,0.0,-39.25211999999999,-5.65161194354226,-8.311624449336938,1.7422834545559422,-5.65161194354226
5.996233940124512,-22.34964199999999,-3.446013093143552,-3.698722487496117,-2.1624013669039552,-3.446013093143552,0.0,0.0,0.0,,0.0,51.02532500000001,-8.671713457428291,-14.285504850563855,-2.4509307029105907,-8.671713457428291
6.007015943527222,-6.477505999999977,-2.0840070880740185,-1.6511536059632306,-1.9157630862628399,-2.0840070880740185,0.0,0.0,0.0,,0.0,-7.881838999999957,10.610298725379877,6.675510027061575,10.915973545292461,10.610298725379877
6.007015943527222,-1.7016539999999907,0.3704093707986894,0.7589761483874331,-0.9119025683247456,0.3704093707986894,0.0,0.0,0.0,,0.0,-27.766886999999997,26.911383366021578,24.173410500747327,24.923960057595682,26.911383366021578
6.022088050842285,-1.6530349999999885,2.629616815345081,1.7007406167456909,0.17608399006917885,2.629616815345081,0.0,0.0,0.0,,0.0,24.573012000000006,15.749801874344428,10.953260208702055,13.998059357413585,15.749801874344428
6.022088050842285,-25.633273999999986,3.4614544361319988,1.1778300969694984,0.9378511125588518,3.4614544361319988,0.0,0.0,0.0,,0.0,50.18758700000001,-16.352596119979793,-24.221713183297158,-5.775633986596016,-16.352596119979793
6.03780198097229,6.944995000000006,2.8109930432960657,0.8951201617349631,0.8895763122451078,2.8109930432960657,0.0,0.0,0.0,,0.0,-105.80363999999997,-38.13178787857496,-45.374486987711194,-12.954677946431644,-38.13178787857496
6.03780198097229,-2.012065999999976,1.38145263765113,1.7768297154085664,0.23551370579339959,1.38145263765113,0.0,0.0,0.0,,0.0,-34.723100999999986,-28.42124958408031,-31.463899045121703,-10.24839605404928,-28.42124958408031
6.038473129272461,-10.673673999999977,-0.26646616127957634,2.7239503120367567,-0.570919094257293,-0.26646616127957634,0.0,0.0,0.0,,0.0,-14.89041199999997,0.9279715532793609,1.5529049807974311,0.042788022017009944,0.9279715532793609
6.038473129272461,-23.000383999999983,-1.9378571959164375,1.98624481351245,-1.531252667852115,-1.9378571959164375,0.0,0.0,0.0,,0.0,85.32020700000004,19.842028182373774,21.305184986317137,8.960462349071936,19.842028182373774
6.0526440143585205,-5.2171599999999785,-3.6692266429953153,-0.9966011650639564,-2.5629429297691027,-3.6692266429953153,0.0,0.0,0.0,,0.0,-44.73481399999997,12.085771057605063,12.644261219661853,3.762795781408414,12.085771057605063
6.0526440143585205,-7.999645999999984,-5.445928668846337,-5.128477370903452,-3.5233927428393725,-5.445928668846337,0.0,0.0,0.0,,0.0,-11.846133000000009,-10.904769643222801,-10.443009144765616,-6.932646161111512,-10.904769643222801
6.053355932235718,-13.695512999999977,-6.7344740185302765,-8.22776617692519,-4.400315215039579,-6.7344740185302765,0.0,0.0,0.0,,0.0,-59.06236999999999,-24.012579961423846,-22.225316731242657,-13.57035693482872,-24.012579961423846
6.083413124084473,-33.05323499999999,-6.490229750426924,-8.228089110093935,-4.650994376522957,-6.490229750426924,0.0,0.0,0.0,,0.0,56.68753300000003,-14.009656843010344,-10.598950590064044,-14.28722849981248,-14.009656843010344
6.083413124084473,-2.150441999999998,-4.175833570300332,-4.8354511538469245,-3.874837009981179,-4.175833570300332,0.0,0.0,0.0,,0.0,-26.31206599999996,7.442655615284664,10.770947297184778,-2.031409721378064,7.442655615284664
6.084083080291748,-3.0592379999999935,-0.7015032162348673,-0.13553828825891212,-2.4104481889593754,-0.7015032162348673,0.0,0.0,0.0,,0.0,-31.52922699999999,16.02091259462229,16.554421929461096,9.373787743253725,16.02091259462229
6.084083080291748,-8.358675999999974,2.1053038044383965,3.0651065132503295,-0.4008045497094425,2.1053038044383965,0.0,0.0,0.0,,0.0,15.787987000000044,0.13359816777001987,-3.2458589360657437,-3.1677537136488727,0.13359816777001987
6.084818124771118,-19.241784999999993,2.85076215807504,3.5262601612112268,1.088769560849071,2.85076215807504,0.0,0.0,0.0,,0.0,20.50774100000001,-26.41442935277908,-31.862621026168764,-23.274154389254146,-26.41442935277908
6.084818124771118,-0.5871640000000014,1.363631939019876,2.034743074124925,0.554460059374528,1.363631939019876,0.0,0.0,0.0,,0.0,-82.63869999999997,-38.87210122118093,-43.18389233379459,-25.73077381165207,-38.87210122118093
6.0971009731292725,-0.8152979999999843,-1.106766233934473,0.42820574255012867,-0.8819366486782327,-1.106766233934473,0.0,0.0,0.0,,0.0,-54.57448999999997,-28.964812960563954,-30.40592544623172,-19.751914201851225,-28.964812960563954
6.0971009731292725,-12.917613999999986,-2.3964583364155914,0.36430527320844375,-1.5604915374568311,-2.3964583364155914,0.0,0.0,0.0,,0.0,-8.955190999999957,-13.402605319837319,-12.784285612588995,-18.91196861014441,-13.402605319837319
6.112662076950073,-26.108240999999992,-1.453345799563309,1.9884824136397792,-1.9064885072447815,-1.453345799563309,0.0,0.0,0.0,,0.0,18.64901100000003,-12.43885259687497,-11.57086921633555,-21.426032024358097,-12.43885259687497
6.112662076950073,-0.3814689999999814,-0.2192476960920855,3.1781463153906517,-2.3797487496796252,-0.2192476960920855,0.0,0.0,0.0,,0.0,-21.880284999999958,-25.288174014588744,-25.13454891179314,-25.699340149505105,-25.288174014588744
6.1133809089660645,0.0,-1.7906226155452332,1.4053882876421249,-3.265464508045351,-1.7906226155452332,0.0,0.0,0.0,,0.0,-105.42217,-33.34176810135616,-33.58947910277355,-29.812173294934105,-33.34176810135616
6.1133809089660645,-19.417559999999995,-6.200258991461123,-3.0136118734370303,-5.154397069428158,-6.200258991461123,0.0,0.0,0.0,,0.0,-12.904524999999978,-26.255278259113993,-25.82321102636306,-29.8811025678963,-26.255278259113993
6.126972913742065,-33.95081099999999,-10.010817199619941,-7.012856467948428,-7.1493851226614575,-10.010817199619941,0.0,0.0,0.0,,0.0,46.866556,-15.112285251406341,-13.067483573384443,-27.688252795615206,-15.112285251406341
6.126972913742065,-7.636874999999975,-10.589133797458246,-8.173830394524781,-8.136838668480925,-10.589133797458246,0.0,0.0,0.0,,0.0,-59.09228999999999,-15.163988873494858,-11.789628349420102,-27.000503770394964,-15.163988873494858
6.142688989639282,-13.059730000000002,-8.80285851422696,-6.774348601573973,-8.521498641654052,-8.80285851422696,0.0,0.0,0.0,,0.0,-54.267818999999974,-25.553544232642267,-22.13154716667401,-26.845834893409663,-25.553544232642267
6.142688989639282,-14.286417,-7.3009977867011715,-4.693776062240174,-8.506604720716844,-7.3009977867011715,0.0,0.0,0.0,,0.0,-45.84556399999997,-34.078019764558306,-31.19999032857883,-25.1990492356749,-34.078019764558306
6.143367052078247,-35.64498599999999,-8.03193622312266,-4.081788021914154,-8.690133778787956,-8.03193622312266,0.0,0.0,0.0,,0.0,40.508726000000024,-34.36924612652353,-31.07219149376064,-24.61406783575234,-34.36924612652353
6.143367052078247,-8.268917999999985,-11.133455472572443,-6.020038613785038,-10.387159644780098,-11.133455472572443,0.0,0.0,0.0,,0.0,-88.401885,-31.764996663179243,-26.501656844022932,-27.77186505141827,-31.764996663179243
6.17334508895874,-13.224285999999978,-14.248575241371894,-8.564439373352101,-12.03355283006765,-14.248575241371894,0.0,0.0,0.0,,0.0,-58.056336999999985,-36.29424583744046,-28.035214311864515,-32.99728795053959,-36.29424583744046
6.17334508895874,-27.342407999999992,-13.99654234660536,-7.86204389322201,-11.146705983259267,-13.99654234660536,0.0,0.0,0.0,,0.0,-51.863062999999954,-50.834738017494686,-38.85999226164272,-38.34047181596594,-50.834738017494686
6.174000978469849,-37.95998399999999,-10.581744008827485,-3.435044179653259,-9.253624390269787,-10.581744008827485,0.0,0.0,0.0,,0.0,-0.49553699999995615,-64.16789739486065,-47.95914134929974,-41.32723106905004,-64.16789739486065
6.174000978469849,1.125709999999998,-8.738682751667188,0.2111167277762398,-8.423485647739854,-8.738682751667188,0.0,0.0,0.0,,0.0,-127.04627199999999,-61.44414290189848,-41.73465431246175,-39.263820806391564,-61.44414290189848
6.174767017364502,-16.54157699999999,-10.710087367903526,0.1399713264417315,-7.914238818139439,-10.710087367903526,0.0,0.0,0.0,,0.0,-40.127256999999986,-43.577514398148935,-21.718688029487318,-33.4516603770843,-43.577514398148935
6.174767017364502,-22.92932599999999,-11.61903859550792,-0.04527203421940129,-7.4525031426333435,-11.61903859550792,0.0,0.0,0.0,,0.0,-45.65482900000001,-26.753075429340726,-2.1382728112421105,-26.102526344418408,-26.753075429340726
6.18693208694458,-29.029102999999992,-6.65710838385607,3.8125503147127997,-6.422748389012484,-6.65710838385607,0.0,0.0,0.0,,0.0,35.620677,-21.064525354086594,7.453865315492205,-18.64195330017649,-21.064525354086594
6.18693208694458,-0.35528999999999655,0.39497374791552126,8.615286597771789,-2.8185346524632258,0.39497374791552126,0.0,0.0,0.0,,0.0,-50.78971200000001,-20.228545970827383,9.176278053257647,-12.757728205818228,-20.228545970827383
6.202688932418823,5.602371000000005,1.802497802765381,7.831445520704615,0.6073312021496516,1.802497802765381,0.0,0.0,0.0,,0.0,-53.90130799999997,-13.556402993101033,10.719018983041709,-8.22346437334838,-13.556402993101033
6.202688932418823,-14.899760999999984,-2.8844641378142986,1.5602309777985686,-0.7255336865306401,-2.8844641378142986,0.0,0.0,0.0,,0.0,18.559253000000012,0.8439323627379697,18.41537053176432,-4.121191947928943,0.8439323627379697
6.203417062759399,-34.968063999999984,-6.429210883172576,-3.2128555320107326,-3.4005966612799954,-6.429210883172576,0.0,0.0,0.0,,0.0,48.79260500000004,14.881139081512325,30.716494965170497,-0.7290019122398829,14.881139081512325
6.203417062759399,3.3771300000000224,-4.308212372093715,-2.397725086368797,-2.2035006001455644,-4.308212372093715,0.0,0.0,0.0,,0.0,-15.664570999999967,17.50446933496005,35.67952111199244,2.0281301699893635,17.50446933496005
6.216954946517944,-2.610449999999986,0.40448688044350833,0.9631945641385546,0.8839621047518276,0.40448688044350833,0.0,0.0,0.0,,0.0,6.913205000000005,6.755961194067042,24.679796763517338,4.344885787052053,6.755961194067042
6.216954946517944,-7.412480999999985,3.2387752005125394,3.0392369835826147,2.7614620138567156,3.2387752005125394,0.0,0.0,0.0,,0.0,-40.81539799999996,-3.456567728370329,9.25977333006268,5.467225792433644,-3.456567728370329
6.232717037200928,-18.08615599999999,4.2418961335839676,4.359562477572403,3.9435060039970384,4.2418961335839676,0.0,0.0,0.0,,0.0,70.27459000000005,2.1891047433657627,9.027856367165802,6.732085884176571,2.1891047433657627
6.232717037200928,7.887449000000004,5.946347205718096,6.698267804702436,5.127186228127555,5.946347205718096,0.0,0.0,0.0,,0.0,-16.60328599999997,19.331387319316264,23.07687498088225,10.965375793429441,19.331387319316264
6.233467102050781,5.0226860000000215,8.787027415824106,8.97699504496254,6.09061462618864,8.787027415824106,0.0,0.0,0.0,,0.0,18.394698000000005,30.08299102994933,31.772105691537813,15.290750607287972,30.08299102994933
6.233467102050781,4.944148000000013,10.80144536111942,8.912645689363194,6.746462280068249,10.80144536111942,0.0,0.0,0.0,,0.0,3.143386000000021,28.092644956206666,25.747388865791372,15.14162943856655,28.092644956206666
6.246933937072754,-13.422499999999985,10.719962473669039,6.586109227816583,7.007842379818051,10.719962473669039,0.0,0.0,0.0,,0.0,80.035729,23.248340770643807,15.09822766990023,13.983298452346522,23.248340770643807
6.246933937072754,9.81349800000001,9.304638823589858,3.9725544282675713,6.885243948563446,9.304638823589858,0.0,0.0,0.0,,0.0,11.670358000000022,24.98473154324921,12.036499934558602,15.723206604426535,24.98473154324921
6.262666940689087,6.8028790000000186,7.566589157430212,1.879714035782838,6.429913621170102,7.566589157430212,0.0,0.0,0.0,,0.0,-7.732242999999983,33.37418498797081,18.584719763618313,18.725500526377687,33.37418498797081
6.262666940689087,-2.4608539999999834,5.713847307132571,-0.26712657475689916,5.553288204541075,5.713847307132571,0.0,0.0,0.0,,0.0,27.61355100000003,42.05972861723537,27.658111807719266,23.02136013417738,42.05972861723537
6.263397932052612,-17.203538999999992,4.53410043761615,-1.9521786500835914,4.896278922766234,4.53410043761615,0.0,0.0,0.0,,0.0,122.41627500000001,41.6042024445714,27.864189860827842,24.788491497812313,41.6042024445714
6.263397932052612,4.431781999999998,5.529483067982085,-1.3896074382068209,5.099538851058362,5.529483067982085,0.0,0.0,0.0,,0.0,-25.691242999999986,26.6264082287756,12.940012529407472,16.84020147136601,26.6264082287756
6.277055025100708,8.384856000000013,8.3730590821399,1.612440650817974,5.6316328773264415,8.3730590821399,0.0,0.0,0.0,,0.0,-10.993435999999974,5.961101444583633,-8.258938394949695,7.25160788266616,5.961101444583633
6.277055025100708,3.990474000000006,10.144953815330753,4.619023751678118,6.260328084726061,10.144953815330753,0.0,0.0,0.0,,0.0,-4.796422000000007,-1.2443367019274836,-16.44383635142248,8.13188534789848,-1.2443367019274836
6.292681932449341,-18.09363599999999,8.530097801240522,5.096506813123494,6.3514686157727525,8.530097801240522,0.0,0.0,0.0,,0.0,60.921100000000024,12.610227595750017,-3.630305106679044,13.574000615284426,12.610227595750017
6.292681932449341,10.621316000000007,4.651263666211264,2.8058517978650737,4.435115160791916,4.651263666211264,0.0,0.0,0.0,,0.0,-6.60279399999996,30.12520842851387,13.629473074485059,15.443913242494308,30.12520842851387
6.29339599609375,-1.8325499999999977,1.8564780761647919,-0.19846475051279544,2.3816591344194276,1.8564780761647919,0.0,0.0,0.0,,0.0,30.134244000000024,28.850871967465647,13.723872471066606,15.176770179286734,28.850871967465647
6.29339599609375,-5.463992999999988,2.254279549410378,-1.2560749248685799,3.2880839084795355,2.254279549410378,0.0,0.0,0.0,,0.0,-13.936736999999994,12.782018812693307,0.6954689530667633,12.671433028954155,12.782018812693307
6.307774066925049,-16.38076099999998,4.689918892814763,0.4190831361358196,5.101149411995115,4.689918892814763,0.0,0.0,0.0,,0.0,55.74507900000003,7.3449979357492055,-1.4385188164287896,11.060303785817515,7.3449979357492055
6.307774066925049,6.0361990000000105,5.9224491279838745,2.265292817508392,4.631735931142473,5.9224491279838745,0.0,0.0,0.0,,0.0,10.769042000000013,22.492731433392127,15.188553449152229,17.15289972252592,22.492731433392127
6.322704076766968,4.824471000000017,4.080681298219749,0.9601278013607608,3.102194987012528,4.080681298219749,0.0,0.0,0.0,,0.0,12.24256200000002,39.90442383735787,31.58857519177883,23.323268550408994,39.90442383735787
6.322704076766968,-5.763184999999993,1.0076881230073507,-2.8734256173367667,2.2843803861329297,1.0076881230073507,0.0,0.0,0.0,,0.0,15.372859000000005,39.08187740316365,29.165246230487707,18.53680804681271,39.08187740316365
6.323414087295532,-25.229364999999987,0.12711615147453809,-4.980275358025968,1.7637133220366652,0.12711615147453809,0.0,0.0,0.0,,0.0,96.54738700000001,20.37405373243624,10.802263936346492,9.019302596007408,20.37405373243624
6.323414087295532,4.65991600000001,1.7292176990357302,-3.483974098377579,1.3102025144082436,1.7292176990357302,0.0,0.0,0.0,,0.0,-32.310865999999976,0.7103563756697591,-6.753326593784148,3.0143446960550375,0.7103563756697591
6.337026119232178,5.108704000000017,2.4592426659546627,-1.3445998372869612,0.7133143403293172,2.4592426659546627,0.0,0.0,0.0,,0.0,-37.71502099999998,-4.614249183072956,-10.87349691198051,0.9689107148880072,-4.614249183072956
6.337026119232178,-9.185193999999996,0.3745479945825938,-1.3745948857645796,-0.6569126855824635,0.3745479945825938,0.0,0.0,0.0,,0.0,-14.041454999999985,3.6654303523241833,-3.10305943381273,3.8204048127705126,3.6654303523241833
6.352701902389526,-27.16663299999999,-2.1198647866062927,-2.3510949852128067,-1.6588025210786668,-2.1198647866062927,0.0,0.0,0.0,,0.0,103.73173500000001,11.447084015537673,5.092198551971812,8.079837244458982,11.447084015537673
6.352701902389526,6.226934,-1.672881519146655,-1.5309124670763548,-0.9933779958934514,-1.672881519146655,0.0,0.0,0.0,,0.0,-48.08202399999999,9.693328409447936,6.532123756102853,7.900865697794522,9.693328409447936
6.3534629344940186,-1.2117269999999962,1.8937358640411122,1.6290691781002544,0.5851338632416802,1.8937358640411122,0.0,0.0,0.0,,0.0,-15.099845999999957,3.4876538343701613,3.9289510718690064,5.642007444215652,3.4876538343701613
6.3534629344940186,-3.1003769999999804,5.600655869390134,4.901082066699975,2.3595868996307217,5.600655869390134,0.0,0.0,0.0,,0.0,-21.012628000000007,0.005105692722187721,0.7380222355270378,5.43124655641555,0.005105692722187721
6.366950988769531,-14.630487999999986,6.01800215986643,5.121934764923592,3.148343409728427,6.01800215986643,0.0,0.0,0.0,,0.0,93.77986100000004,-0.7294475262518632,-3.3663701025094905,6.2103632005283425,-0.7294475262518632
6.366950988769531,8.339977000000005,2.2948638795540997,1.4115606111427563,1.4199523544248367,2.2948638795540997,0.0,0.0,0.0,,0.0,-60.73784499999999,0.6832783548646536,-5.726786260651182,6.549766281583833,0.6832783548646536
6.382739067077637,-7.995905999999991,-2.7856320452722394,-3.341134127404882,-1.493420415921867,-2.7856320452722394,0.0,0.0,0.0,,0.0,-19.99911499999996,5.816061083626123,-1.2711598481620774,6.826293157210073,5.816061083626123
6.382739067077637,-11.642307999999986,-5.732072253777527,-5.766980662851135,-3.5328128873268847,-5.732072253777527,0.0,0.0,0.0,,0.0,17.53452100000004,11.821252008550623,7.7785585583223495,7.270168677189132,11.821252008550623
6.383466005325317,-26.40369299999999,-6.020959481155879,-5.830884503477715,-4.552486485746048,-6.020959481155879,0.0,0.0,0.0,,0.0,74.29124200000001,13.775108739743102,13.934933840426806,8.096129651202682,13.775108739743102
6.383466005325317,-1.2341669999999851,-5.377184731547787,-5.364140116659563,-4.766839659210285,-5.377184731547787,0.0,0.0,0.0,,0.0,-30.156683999999984,13.97850330808152,16.72608021104381,9.47303135289911,13.97850330808152
6.397017955780029,-7.528417999999988,-4.616730841744952,-4.908313563943977,-4.108111552941479,-4.616730841744952,0.0,0.0,0.0,,0.0,3.285502000000008,18.456282048592996,22.144876369686912,11.027961341775791,18.456282048592996
6.397017955780029,-10.183746999999983,-3.405055409177294,-4.2019052177565195,-2.6332180841208723,-3.405055409177294,0.0,0.0,0.0,,0.0,4.018522000000019,25.102928327109748,29.69746937623258,12.427130962465695,25.102928327109748
6.412727117538452,-21.437105999999986,-1.9873443022390558,-3.8410754972957393,-0.9401455224018916,-1.9873443022390558,0.0,0.0,0.0,,0.0,100.75851399999999,25.029250458797655,30.70920215360822,12.833058827377744,25.029250458797655
6.412727117538452,2.4346749999999986,-0.8740707112251132,-4.018203499986536,0.2611157346994051,-0.8740707112251132,0.0,0.0,0.0,,0.0,-17.399884999999983,16.53364060124426,22.441001300885105,11.46090461057557,16.53364060124426
6.4134440422058105,-2.109302999999983,0.41889908336170295,-3.164542367824139,0.9933434488285583,0.41889908336170295,0.0,0.0,0.0,,0.0,-29.640577000000008,8.802269455601385,14.095539725617009,8.85803916086153,8.802269455601385
6.4134440422058105,-2.2738589999999874,2.508483570163715,-0.241743958368295,1.4862145255315948,2.508483570163715,0.0,0.0,0.0,,0.0,2.918992000000003,7.629541749054084,12.17979519014568,5.776394543988283,7.629541749054084
6.427082061767578,-18.067455999999993,4.6763004878011625,3.0698898657460507,1.7850921789836929,4.6763004878011625,0.0,0.0,0.0,,0.0,73.14309300000002,6.165597848897492,9.77891616614643,3.243410508295495,6.165597848897492
6.427082061767578,12.618423000000007,5.679177225059149,4.5138340056039885,1.8117827832363926,5.679177225059149,0.0,0.0,0.0,,0.0,-28.436329999999998,-2.5739855336579156,-0.4051881008262468,2.2596111967419343,-2.5739855336579156
6.4427649974823,1.032213000000013,5.371148337480696,4.251159877718431,1.6278649271722594,5.371148337480696,0.0,0.0,0.0,,0.0,-62.18892699999998,-12.188511350123324,-11.353729407968327,2.5697174691464637,-12.188511350123324
6.4427649974823,0.003740000000021837,4.214036253223585,3.6685787538130743,1.7000971337592257,4.214036253223585,0.0,0.0,0.0,,0.0,-4.856259999999963,-11.581064185747943,-11.402629017801186,3.602263014579894,-11.581064185747943
6.443402051925659,-20.517090999999994,1.965678709569842,2.452168408503332,1.4946271479295314,1.965678709569842,0.0,0.0,0.0,,0.0,61.283870000000036,-0.9672618446277608,-1.4534153031769732,4.387453327589306,-0.9672618446277608
6.443402051925659,5.400416000000007,-1.3661470009314582,-0.2841971305881399,-0.1485191197315194,-1.3661470009314582,0.0,0.0,0.0,,0.0,-26.745894999999962,9.106107842683688,7.378060520833294,4.219399552084338,9.106107842683688
6.457093954086304,-6.264331999999996,-3.8089137460657483,-2.9106490255522974,-1.8363116947589513,-3.8089137460657483,0.0,0.0,0.0,,0.0,-24.270081000000005,10.13224609929109,7.642776227748694,3.15485811934802,10.13224609929109
6.457093954086304,-10.718552999999986,-2.994243794556022,-2.5951839234116165,-1.4258402950336873,-2.994243794556022,0.0,0.0,0.0,,0.0,-1.4454719999999952,2.777741643341307,0.9508756596347012,1.0404340224976687,2.777741643341307
6.472858905792236,-17.70842599999999,0.4157110230630414,0.5406580062776885,-0.11242202927257763,0.4157110230630414,0.0,0.0,0.0,,0.0,63.59886800000004,-3.1445138703275424,-4.038162824575297,-0.04677268052914236,-3.1445138703275424
6.472858905792236,6.776699000000008,3.0328386244592522,3.357318670198588,0.2640455444625387,3.0328386244592522,0.0,0.0,0.0,,0.0,-28.024940999999956,4.186550284126571,2.5907110490108276,1.6960342465431053,4.186550284126571
6.473366022109985,1.6530360000000144,2.860016945185071,3.6756809948834004,0.3262478137121214,2.860016945185071,0.0,0.0,0.0,,0.0,-33.53007299999996,23.55290491231447,19.634361021243084,4.506956069071859,23.55290491231447
6.473366022109985,-6.170833999999985,1.4300922604127622,2.173740684342975,0.7790393286785451,1.4300922604127622,0.0,0.0,0.0,,0.0,60.232957999999996,35.675468399941735,29.827661308955097,8.261506516553716,35.675468399941735
6.487092018127441,-14.226578999999987,1.564126566816343,0.8901307500706892,1.5064484432134224,1.564126566816343,0.0,0.0,0.0,,0.0,79.81133500000004,24.59707067845627,18.857376849370937,9.670694120529571,24.59707067845627
6.487092018127441,3.32851100000002,3.939843540602517,1.1550131583796217,2.7796229871261158,3.939843540602517,0.0,0.0,0.0,,0.0,-49.85099700000001,0.019586049476926437,-3.8471716549355093,1.8366171035276233,0.019586049476926437
6.5027549266815186,5.90156300000001,6.047741339203972,2.2544159885454995,3.8151551831926045,6.047741339203972,0.0,0.0,0.0,,0.0,-34.984894,-14.645610827680139,-16.80575001365777,-7.062252145072577,-14.645610827680139
6.5027549266815186,2.8909430000000214,4.977138696127774,2.154996609871854,3.322469628147261,4.977138696127774,0.0,0.0,0.0,,0.0,-24.63285099999996,-11.73767887945982,-13.871877171045597,-3.6949930281833474,-11.73767887945982
6.503494024276733,-21.706378999999984,1.6641862999256303,0.7971891166812776,2.5260439829249655,1.6641862999256303,0.0,0.0,0.0,,0.0,64.48148500000002,-3.659950180674651,-6.646939077271411,3.9585591854267776,-3.659950180674651
6.503494024276733,6.428888999999998,0.6032085741363952,1.19151500148681,2.9526127274272094,0.6032085741363952,0.0,0.0,0.0,,0.0,-43.470726999999954,-1.383018653436967,-4.112290638853324,3.231783507425104,-1.383018653436967
6.517167091369629,0.2356139999999982,3.796228464908864,4.814646965147236,4.015087692962973,3.796228464908864,0.0,0.0,0.0,,0.0,-33.541292999999996,-1.417380153112676,-3.070850492977273,-1.1608343082154842,-1.417380153112676
6.517167091369629,3.223793999999998,7.292978636910954,8.040101623632447,5.415962179069935,7.292978636910954,0.0,0.0,0.0,,0.0,5.940831000000003,3.7641084907184936,0.8207190672589131,-1.9881562121704506,3.7641084907184936
6.532892942428589,-9.39088799999999,6.485938459798863,6.626333191895802,6.311010421432099,6.485938459798863,0.0,0.0,0.0,,0.0,42.39737600000001,10.66244275751037,2.8155681134725965,-1.1823961458097845,10.66244275751037
6.532892942428589,0.9162760000000105,2.844063822817425,2.21194455456561,4.880655676553994,2.844063822817425,0.0,0.0,0.0,,0.0,12.137845000000027,8.288099587504833,-4.000554439356053,-1.3083962148522186,8.288099587504833
6.533427953720093,3.4220090000000027,1.7276451986511867,0.46114362829870426,3.1340303198223824,1.7276451986511867,0.0,0.0,0.0,,0.0,-68.32610299999999,-3.6353218369242706,-15.128860779340325,-1.7595212344282039,-3.6353218369242706
6.533427953720093,-1.484739999999988,4.77008360715671,3.582335772923245,4.391295694763653,4.77008360715671,0.0,0.0,0.0,,0.0,-0.727410999999961,-10.314213392062342,-17.37115218492928,-1.9216660997523256,-10.314213392062342
6.547182083129883,-8.556890999999979,8.432337580068918,8.249118774228572,6.618426757787941,8.432337580068918,0.0,0.0,0.0,,0.0,41.97476700000004,-2.028957740643979,-7.160723643808627,-1.8903921629167115,-2.028957740643979
6.547182083129883,10.673675000000003,9.599105874797877,10.63770644406805,6.6718326220791715,9.599105874797877,0.0,0.0,0.0,,0.0,-19.95423599999998,10.604526345451857,2.7477535475789407,-1.8914990966089165,10.604526345451857
6.562788963317871,8.953321000000017,8.773067385575896,10.219778381049695,5.681521324497836,8.773067385575896,0.0,0.0,0.0,,0.0,-10.810181,11.583186351919746,0.3907055992135078,-1.658185925746443,11.583186351919746
6.562788963317871,1.6679960000000165,7.5978811212929065,8.409058297983053,5.391731100480718,7.5978811212929065,0.0,0.0,0.0,,0.0,-21.154743999999994,2.4693420908849406,-8.840107782448591,-0.9603190363789168,2.4693420908849406
6.563446998596191,-10.905547999999982,6.5554827116766505,6.403174725529022,5.551923338144059,6.5554827116766505,0.0,0.0,0.0,,0.0,57.222339000000034,-2.363208883614907,-11.549010438320193,-0.7842800452640386,-2.363208883614907
6.563446998596191,7.072151000000019,5.887802880983741,5.23052460189329,5.597261091495094,5.887802880983741,0.0,0.0,0.0,,0.0,-36.43223599999999,0.9425843797665994,-6.951681062446371,-1.1168726302089917,0.9425843797665994
6.577003002166748,7.210528000000011,6.341570396663505,5.627000617264283,5.628463052283415,6.341570396663505,0.0,0.0,0.0,,0.0,-23.656736999999964,1.8235693137755908,-6.522783258618137,-2.0890459745068006,1.8235693137755908
6.577003002166748,2.9582610000000216,7.758736794829476,7.019403159076726,6.2106839965840015,7.758736794829476,0.0,0.0,0.0,,0.0,-25.156436999999983,-5.144123752706134,-14.498745816746403,-6.053974312975575,-5.144123752706134
6.592674970626831,-13.598275999999998,8.209977653270577,7.654228875068175,6.5778338325581,8.209977653270577,0.0,0.0,0.0,,0.0,49.31245100000001,-10.048330223487278,-19.990788786261596,-8.504701362438814,-10.048330223487278
6.592674970626831,11.298237999999998,6.046069699284448,6.190211980632405,5.103137676074065,6.046069699284448,0.0,0.0,0.0,,0.0,-36.84736499999997,-2.003927420069012,-12.01365347929064,-2.155977530792889,-2.003927420069012
6.593357086181641,4.4804010000000005,2.8538372118768116,3.7611765586562678,3.459984950219195,2.8538372118768116,0.0,0.0,0.0,,0.0,-28.170796999999993,12.952407431366142,3.3609292565291167,5.505476631746489,12.952407431366142
6.593357086181641,-5.8342429999999865,2.5419247634128235,3.4738349232081496,4.321594471207279,2.5419247634128235,0.0,0.0,0.0,,0.0,2.185970999999995,15.336834747317736,6.6308979703408255,5.019212207440916,15.336834747317736
6.607047080993652,-14.076982999999984,5.874176000091868,5.7699475778279385,5.686399108785617,5.874176000091868,0.0,0.0,0.0,,0.0,64.94149300000004,-3.3048110673668867,-11.003560520687516,-0.19936005003417503,-3.3048110673668867
6.607047080993652,12.603463000000005,7.9027837643640755,6.621580676014613,5.048012733358751,7.9027837643640755,0.0,0.0,0.0,,0.0,-62.89950799999997,-24.121402896155992,-31.39047185202969,-7.228780902759026,-24.121402896155992
6.62266993522644,5.875382999999999,4.159163767893536,3.2729993359820755,3.3499530508922044,4.159163767893536,0.0,0.0,0.0,,0.0,-81.27363599999995,-20.896055318908203,-28.016461890402358,-11.544979642729297,-20.896055318908203
6.62266993522644,-6.814096999999975,-2.1761258856618118,-1.0421958298993492,1.09679909932167,-2.1761258856618118,0.0,0.0,0.0,,0.0,8.057614000000001,4.262464773316993,-1.041203887643496,-5.158643606988885,4.262464773316993
6.623414993286133,-32.290295999999984,-3.852047934295614,-1.2710211917995435,-0.3450495330243509,-3.852047934295614,0.0,0.0,0.0,,0.0,94.87191200000001,21.542890429680508,20.14613806028136,3.69619400403264,21.542890429680508
6.623414993286133,14.712767000000014,0.4730722292872326,2.0958108729517497,1.7072671287218584,0.4730722292872326,0.0,0.0,0.0,,0.0,-62.51803799999999,11.93609840984843,13.577248880700218,2.3595827709600696,11.93609840984843
6.637012958526611,-0.3440699999999879,4.754643304658518,4.191608353991112,4.26682649356265,4.754643304658518,0.0,0.0,0.0,,0.0,-25.40327099999996,-11.778618249948407,-11.118631195599331,-3.672326664690452,-11.778618249948407
6.637012958526611,-1.484739999999988,3.999209521699715,2.7202576204059823,2.5231805001910677,3.999209521699715,0.0,0.0,0.0,,0.0,-44.080331,-25.471151335883302,-28.321868204466313,-6.481317706348843,-25.471151335883302
6.652679920196533,-18.104854999999986,-0.3779940346205485,-0.054799359832951144,-1.1946580037140244,-0.3779940346205485,0.0,0.0,0.0,,0.0,22.961116000000004,-20.897588683153458,-24.885531543000422,-6.838026126065963,-20.897588683153458
6.652679920196533,-2.7862250000000017,-4.36186683498731,-1.8988152475214979,-2.8393217894971454,-4.36186683498731,0.0,0.0,0.0,,0.0,-29.805132999999955,-8.858220993605352,-9.596098871875977,-4.978697463598339,-8.858220993605352
6.653458118438721,-7.9547669999999755,-6.893104727964089,-3.6365693233882093,-3.66165927150329,-6.893104727964089,0.0,0.0,0.0,,0.0,-64.69839999999999,-3.7989066148346575,0.02928115301667944,-3.081071096657355,-3.7989066148346575
6.653458118438721,-11.313196999999974,-9.406429177160677,-6.683212191233297,-5.915207137297815,-9.406429177160677,0.0,0.0,0.0,,0.0,-4.145678999999973,-9.290963424888696,-2.874317386059966,-5.302533895187716,-9.290963424888696
6.667046070098877,-32.323954999999984,-11.517613434169386,-9.250934080422997,-8.06539611678205,-11.517613434169386,0.0,0.0,0.0,,0.0,30.597991000000036,-16.807555599706237,-9.594006231953276,-8.708393616591207,-16.807555599706237
6.667046070098877,-10.150087999999982,-10.758715460353242,-8.018602754670908,-8.01563397349262,-10.758715460353242,0.0,0.0,0.0,,0.0,-72.17445999999995,-17.602128021409868,-9.731975405894916,-8.606543805477017,-17.602128021409868
6.6841559410095215,-5.486432999999977,-7.280459371740476,-3.701716240283491,-6.982556394076452,-7.280459371740476,0.0,0.0,0.0,,0.0,-36.21532099999996,-13.67049492743149,-5.599310944919292,-6.802836977177451,-13.67049492743149
6.6841559410095215,-10.509118,-5.085854266474869,-1.214409505115952,-6.729730111813186,-5.085854266474869,0.0,0.0,0.0,,0.0,-34.16585599999996,-12.82650841004084,-6.391808853533851,-6.122096884840622,-12.82650841004084
6.684319972991943,-24.41032699999998,-6.510790533883218,-2.772415524219002,-6.910680928194144,-6.510790533883218,0.0,0.0,0.0,,0.0,41.40630200000004,-15.433714989786463,-11.441089458799052,-6.157152099389929,-15.433714989786463
6.684319972991943,-8.265177999999992,-8.744694255707016,-4.699589113406114,-7.04197003623597,-8.744694255707016,0.0,0.0,0.0,,0.0,-72.80650299999996,-14.985899808953985,-11.170900096192428,-6.136165294233986,-14.985899808953985
6.697007894515991,-9.74243899999999,-8.380340646203507,-3.4367808378574827,-7.2778840946497585,-8.380340646203507,0.0,0.0,0.0,,0.0,-35.635636999999974,-11.034973041202528,-4.3067880248250034,-6.4062016166271745,-11.034973041202528
6.697007894515991,-8.272657999999979,-6.537116848179793,-0.997469096592229,-7.635629527161211,-6.537116848179793,0.0,0.0,0.0,,0.0,-32.060293,-10.241836352473813,-0.21915022731005607,-7.206935760339004,-10.241836352473813
6.7295191287994385,-26.672965999999988,-6.756084539769473,-1.4351586619882593,-8.575862879489573,-6.756084539769473,0.0,0.0,0.0,,0.0,44.85822999999999,-13.36114767884949,-2.105544266136649,-7.669329140445057,-13.36114767884949
6.7295191287994385,-11.462792999999976,-10.20456104810134,-5.237214723051123,-10.203116690856271,-10.20456104810134,0.0,0.0,0.0,,0.0,-74.668973,-12.50324396407103,-1.596707310427707,-7.58028935630938,-12.50324396407103
6.729778051376343,-11.971418999999997,-15.111769516247112,-9.956145245891408,-12.043476375897438,-15.111769516247112,0.0,0.0,0.0,,0.0,-29.89115099999998,-3.9293668435773346,6.416108818563282,-6.835333049323974,-3.9293668435773346
6.729778051376343,-22.042969999999983,-18.677026126137612,-13.204960149253989,-14.536352889973825,-18.677026126137612,0.0,0.0,0.0,,0.0,-5.2414699999999925,5.71510399016486,15.314857828700248,-4.040158352706112,5.71510399016486
6.730561971664429,-44.452449999999985,-18.37514965299468,-13.209722640599734,-15.799352410278187,-18.37514965299468,0.0,0.0,0.0,,0.0,39.648549,7.248730596447594,15.39928675982427,-2.348235028613364,7.248730596447594
6.730561971664429,-4.77959199999998,-13.94310988519191,-9.78523663676806,-12.452919223270582,-13.94310988519191,0.0,0.0,0.0,,0.0,-47.236807,-3.2239521820413133,2.7677019891705115,-6.209619555912581,-3.2239521820413133
6.731451034545898,-13.299083999999993,-8.824131573654798,-5.482739200361259,-7.961965113764324,-8.824131573654798,0.0,0.0,0.0,,0.0,-38.455521999999974,-20.66323510910799,-17.33162549727485,-10.964781328301811,-20.66323510910799
6.731451034545898,-11.096283,-7.332103167603026,-3.5565754774076903,-7.763358378821863,-7.332103167603026,0.0,0.0,0.0,,0.0,-70.34938799999998,-30.72790184551382,-29.836577969810186,-12.274330637694645,-30.72790184551382
6.7419281005859375,-28.595274999999987,-9.63025261160815,-3.91093141929602,-9.07024384595022,-9.63025261160815,0.0,0.0,0.0,,0.0,26.66735600000004,-22.482830605445255,-22.000993065328323,-10.759454925264583,-22.482830605445255
6.7419281005859375,-9.727478999999988,-11.187248191042974,-3.1417747587738685,-7.828795085655563,-11.187248191042974,0.0,0.0,0.0,,0.0,-48.79260499999998,-5.808369218672666,-2.339058430700362,-3.5751436738680473,-5.808369218672666
6.756954908370972,-8.874781999999982,-8.249596241027946,0.5270836570750177,-5.410422706605317,-8.249596241027946,0.0,0.0,0.0,,0.0,-35.897429999999986,-3.4489547171325627,4.795460844477032,1.4073184818335414,-3.4489547171325627
6.756954908370972,-7.663054999999986,-2.74219595466504,4.652828715139891,-3.034544202722168,-2.74219595466504,0.0,0.0,0.0,,0.0,-45.14994199999995,-21.19485888244522,-10.185605712442502,-9.6105395064426,-21.19485888244522
6.772819995880127,-20.77140399999999,-0.022499212867616497,5.922078681225335,-1.416844191272596,-0.022499212867616497,0.0,0.0,0.0,,0.0,-3.236883999999975,-38.73095493765824,-28.916061456671827,-23.11824231817822,-38.73095493765824
6.772819995880127,3.4332290000000114,-1.9393226006022324,4.712214753392888,-2.3893898357276586,-1.9393226006022324,0.0,0.0,0.0,,0.0,-66.067203,-34.884218945607955,-28.2562691774553,-19.306109432493855,-34.884218945607955
6.773431062698364,-6.028717999999998,-4.230220086045105,4.79086477762912,-3.504962648968509,-4.230220086045105,0.0,0.0,0.0,,0.0,-57.472913000000005,-11.865987479196178,-7.307318133899824,-6.411230629755226,-11.865987479196178
6.773431062698364,-11.440352999999988,-2.009382781221423,8.395357350532546,-0.8824099164363708,-2.009382781221423,0.0,0.0,0.0,,0.0,-24.688949999999977,10.473387891567032,14.27802478851221,2.9607524080475924,10.473387891567032
6.787175893783569,-10.516597999999988,3.874964146636137,12.99883146827442,3.1471004790877584,3.874964146636137,0.0,0.0,0.0,,0.0,96.93633700000004,18.651174562607242,20.24862547385254,8.73154094103307,18.651174562607242
6.787175893783569,8.093144000000024,8.175211259141347,14.3071837125281,5.017975470969033,8.175211259141347,0.0,0.0,0.0,,0.0,-61.26517099999995,17.54561408965997,13.753656958380361,11.108157479593983,17.54561408965997
6.802661895751953,9.140316000000013,7.942357585204828,11.398832823500644,5.502773745236201,7.942357585204828,0.0,0.0,0.0,,0.0,-11.251488999999992,17.661903517830716,7.452228648082167,10.258231617623535,17.661903517830716
6.802661895751953,-3.3883489999999767,5.317903117810046,7.166790588836283,5.867892848566239,5.317903117810046,0.0,0.0,0.0,,0.0,-3.9960829999999987,18.035910314322255,4.256314404626847,8.925203146334207,18.035910314322255
6.803369045257568,-13.530957999999998,3.869419961742238,4.513266272848283,5.898363792842553,3.869419961742238,0.0,0.0,0.0,,0.0,58.55748300000005,10.768538244651909,-2.3036213403850496,7.421617094060455,10.768538244651909
6.803369045257568,6.047419000000019,4.4644044634107605,4.116702202620378,5.618278514524383,4.4644044634107605,0.0,0.0,0.0,,0.0,-55.42344800000001,-1.572637716510819,-11.782316596504817,3.379740016908577,-1.572637716510819
6.81706690788269,5.7183080000000075,5.349277389093938,4.993935836892855,5.094865021108835,5.349277389093938,0.0,0.0,0.0,,0.0,-41.193128,-4.605836294811462,-12.937699028169144,1.3056100538158546,-4.605836294811462
6.81706690788269,-2.7189070000000015,4.938469086553207,5.587203535150324,4.084427178316154,4.938469086553207,0.0,0.0,0.0,,0.0,-13.951696999999967,9.76211986664424,1.0598632317565606,7.703967182808327,9.76211986664424
6.83280611038208,-14.723985999999996,3.6525089725282416,4.712093987535259,3.2186446610934487,3.6525089725282416,0.0,0.0,0.0,,0.0,63.370735000000025,29.814744959110342,19.469276312669408,14.33262216595414,29.814744959110342
6.83280611038208,6.0175000000000125,3.1947545374758923,2.4334670036037234,3.2951167535153996,3.1947545374758923,0.0,0.0,0.0,,0.0,1.396852000000024,33.826574035520856,22.218331330912253,12.742452232563428,33.826574035520856
6.833525896072388,1.559539000000001,4.28272630805581,-0.11319022882412,3.635811894734372,4.28272630805581,0.0,0.0,0.0,,0.0,-28.297953000000007,14.84147712016414,3.5012715767050295,5.073822274327418,14.84147712016414
6.833525896072388,1.9223090000000127,5.355256675245921,-1.925428081480618,3.442862647795375,5.355256675245921,0.0,0.0,0.0,,0.0,-47.603317000000004,-9.21627787958859,-19.06048715738198,-9.197504280439627,-9.21627787958859
6.847247123718262,-18.875274999999988,4.038395545597323,-3.123548451750378,2.530850945849679,4.038395545597323,0.0,0.0,0.0,,0.0,39.446595,-15.244198023885469,-23.585217866145534,-18.6029904572766,-15.244198023885469
6.847247123718262,6.260593,0.03280346985192362,-4.514321020962388,0.4012366252326048,0.03280346985192362,0.0,0.0,0.0,,0.0,-50.299784999999986,-0.566987262774618,-7.244218510878164,-7.7029669501561,-0.566987262774618
6.862787961959839,-6.930033999999978,-4.175525627095815,-6.314938696392454,-2.3460795567171173,-4.175525627095815,0.0,0.0,0.0,,0.0,-27.194682999999998,16.480345518196124,12.732856935756068,9.0275590611448,16.480345518196124
6.862787961959839,-13.343963000000002,-6.347635613893165,-8.283908643587582,-4.555752973421264,-6.347635613893165,0.0,0.0,0.0,,0.0,-9.987402999999972,17.443541007712927,17.97636389003819,15.232028835425048,17.443541007712927
6.8635149002075195,-26.80760199999999,-7.882417599187384,-11.183530912993225,-7.491598693737999,-7.882417599187384,0.0,0.0,0.0,,0.0,53.64325500000001,-0.33936412824671824,3.9916052620654834,8.763549163504917,-0.33936412824671824
6.8635149002075195,-9.914473999999984,-12.456015780124442,-16.45995714342751,-11.702488515959336,-12.456015780124442,0.0,0.0,0.0,,0.0,-93.301154,-25.50784836383997,-19.493632464597912,-12.595666377822683,-25.50784836383997
6.877156019210815,-19.720491999999993,-20.411257337301517,-22.94110649474384,-16.083681721874232,-20.411257337301517,0.0,0.0,0.0,,0.0,-73.27398999999997,-41.35377189244736,-34.21934823719114,-29.412398030564866,-41.35377189244736
6.877156019210815,-34.00316999999998,-26.208770795220737,-25.27190953365232,-20.715127671201408,-26.208770795220737,0.0,0.0,0.0,,0.0,-34.71936099999999,-30.818597611612653,-19.738134671893697,-22.792250586369672,-30.818597611612653
6.892784118652344,-44.75538199999998,-23.34909805084124,-18.655860630740776,-20.51753887095923,-23.34909805084124,0.0,0.0,0.0,,0.0,5.159192000000019,13.905380245937957,31.954729226603263,5.37535695206757,13.905380245937957
6.892784118652344,-7.674273999999997,-10.753812100229169,-5.066374798346656,-10.155955141152331,-10.753812100229169,0.0,0.0,0.0,,0.0,68.726271,76.08542750948325,97.40594272204861,55.86644253732163,76.08542750948325
6.893594980239868,14.409835000000015,7.101019062408807,8.451227725455361,5.365414569072144,7.101019062408807,0.0,0.0,0.0,,0.0,75.12524000000002,118.84003911605737,133.22394066868134,98.35204417358501,118.84003911605737
6.893594980239868,3.205095,23.767510972723237,16.115289885655447,20.70088645775745,23.767510972723237,0.0,0.0,0.0,,0.0,61.942093,115.63978073348042,116.05290384634931,93.31559313380005,115.63978073348042
6.913147926330566,20.801324000000022,32.67342451180078,15.494131052756678,30.515532089102717,32.67342451180078,0.0,0.0,0.0,,0.0,136.33992300000003,72.79975680456437,61.853067165445275,59.7727549735495,72.79975680456437
6.913147926330566,35.97783800000002,30.142477229314053,8.220022737449884,28.152239886236405,30.142477229314053,0.0,0.0,0.0,,0.0,-24.041946999999993,22.074721167937646,9.762939498893644,27.2004511214853,22.074721167937646
6.9228339195251465,15.494405999999998,20.29343029303799,0.3869759570643261,19.910930556938684,20.29343029303799,0.0,0.0,0.0,,0.0,-53.56471699999997,-5.391545665820628,-7.596042059956973,2.411957426679084,-5.391545665820628
6.9228339195251465,2.288819000000018,12.771741631365282,-1.0696801381710497,15.224679879588894,12.771741631365282,0.0,0.0,0.0,,0.0,-55.64784199999997,-4.814394260157798,8.84134820859198,-5.458352229369859,-4.814394260157798
6.923566102981567,0.5722050000000252,12.60692838744099,4.2526840837602595,13.506509772247467,12.60692838744099,0.0,0.0,0.0,,0.0,82.58260100000001,1.3995184196642656,25.963563538488057,-2.009541154757425,1.3995184196642656
6.923566102981567,13.736653000000018,15.810622548245776,10.061951594313904,13.42714376855424,15.810622548245776,0.0,0.0,0.0,,0.0,-67.780077,-3.349894890330814,19.345891122192693,-3.23572661481681,-3.349894890330814
6.936975002288818,16.373282000000017,16.241365755009802,11.881596291167714,13.566248462399065,16.241365755009802,0.0,0.0,0.0,,0.0,-45.97271999999998,-6.041766481826368,3.7328680226797566,-3.0177469076830405,-6.041766481826368
6.936975002288818,9.076738000000006,12.97913678999843,10.859957586796117,10.795540434495834,12.97913678999843,0.0,0.0,0.0,,0.0,-41.705494999999985,10.352007826797845,4.883462193067205,11.004529015738088,10.352007826797845
6.9526801109313965,-15.296189999999996,9.213663320862079,8.45649383270028,6.845726195773626,9.213663320862079,0.0,0.0,0.0,,0.0,105.317452,31.867264631344742,15.85661286652789,25.388748777106,31.867264631344742
6.9526801109313965,12.308011000000022,6.592836221994309,3.1431744592286623,5.279455028673545,6.592836221994309,0.0,0.0,0.0,,0.0,-23.29396700000001,30.205061541194723,9.866825408530914,23.22577443122871,30.205061541194723
6.953491926193237,3.4594080000000247,3.766974063637855,-4.8848341677988465,4.710160625446881,3.766974063637855,0.0,0.0,0.0,,0.0,-44.050411999999994,6.349501356922971,-12.886143527592552,12.411703237415095,6.349501356922971
6.953491926193237,-7.150687999999974,0.27823001676157966,-10.064184039599553,2.302485389295918,0.27823001676157966,0.0,0.0,0.0,,0.0,-37.47940799999998,-9.669470126461508,-22.776225162400003,2.8633278263952486,-9.669470126461508
6.967390060424805,-21.339868999999993,-1.289847437987023,-7.016448385267093,0.23340238763289226,-1.289847437987023,0.0,0.0,0.0,,0.0,32.613797000000034,-1.7674229168345676,-5.200830405307061,-2.4286322999238155,-1.7674229168345676
6.967390060424805,5.29195900000002,1.278151663990822,2.071622963056173,1.7918450853967416,1.278151663990822,0.0,0.0,0.0,,0.0,-9.845286999999985,13.370837323190718,19.30509473008771,1.71265792994831,13.370837323190718
6.9829089641571045,3.781039000000021,5.998812855118751,9.272691521663422,4.434507383682093,5.998812855118751,0.0,0.0,0.0,,0.0,-47.38640299999997,14.465994350739537,25.6755193631301,7.955623360137472,14.465994350739537
6.9829089641571045,1.7577530000000081,8.20404959870087,9.497104769722753,4.676335881374258,8.20404959870087,0.0,0.0,0.0,,0.0,-20.466602999999964,1.9546990300163851,13.58812795605197,5.117767853682143,1.9546990300163851
6.983443975448608,-10.505377999999979,5.7877885576905586,4.862720295096773,3.4508645744441475,5.7877885576905586,0.0,0.0,0.0,,0.0,18.854705000000024,-11.643606157543314,-1.937232247368243,-1.8836757250335556,-11.643606157543314
6.983443975448608,1.219208000000009,1.5824234307865888,0.9230769977726496,2.145264158573453,1.5824234307865888,0.0,0.0,0.0,,0.0,-39.210981000000004,-20.044010553774747,-11.155465150666966,-6.179789422516047,-20.044010553774747
6.996968984603882,-1.3650629999999921,-0.40185336053732423,0.7262727936290616,1.1569177403663213,-0.40185336053732423,0.0,0.0,0.0,,0.0,-90.17085799999995,-21.367667521517706,-10.624739595071397,-6.1633920852540856,-21.367667521517706
6.996968984603882,-5.725785999999999,0.19742393041529932,2.8900253818924373,1.2357727539940635,0.19742393041529932,0.0,0.0,0.0,,0.0,-33.010226999999986,-11.467919883503997,2.1220384408663193,-1.038378601158714,-11.467919883503997
7.012708902359009,-14.978298999999993,1.028735268628339,4.287237430393709,2.016605905519443,1.028735268628339,0.0,0.0,0.0,,0.0,67.37616700000001,8.770609464657381,22.898303252284165,5.450507249661502,8.770609464657381
7.012708902359009,1.1668490000000133,1.4447368802615728,3.8166477705493644,2.456550064838365,1.4447368802615728,0.0,0.0,0.0,,0.0,-50.61019599999997,25.411799396261276,36.13207181969777,10.841381115682937,25.411799396261276
7.013422012329102,-0.04861799999997629,2.850618527958985,2.7823572583700447,3.019263632086113,2.850618527958985,0.0,0.0,0.0,,0.0,7.3806920000000105,21.127478351598647,26.314634924098787,10.54321741996557,21.127478351598647
7.013422012329102,4.383163000000025,5.327964876265733,2.723438140716991,4.44460630214753,5.327964876265733,0.0,0.0,0.0,,0.0,-48.310158,-4.702096742079975,-3.889845670980141,-3.0257721718541757,-4.702096742079975
7.027045011520386,-14.192919999999987,6.97006538331992,4.228289709690033,5.56356376620515,6.97006538331992,0.0,0.0,0.0,,0.0,23.365025000000003,-30.888576777298503,-31.731007076742067,-19.079241891893307,-30.888576777298503
7.027045011520386,6.683202000000023,6.389921597683488,6.708443191459495,5.562176170034459,6.389921597683488,0.0,0.0,0.0,,0.0,-95.53013499999997,-35.607141502290396,-35.88952775066212,-21.822596953382448,-35.607141502290396
7.042719125747681,7.124510000000015,4.091561251600622,8.319064188173822,4.618841785497144,4.091561251600622,0.0,0.0,0.0,,0.0,-54.39871499999998,-20.061340372063075,-18.653045493150163,-17.223191972123825,-20.061340372063075
7.042719125747681,-4.9890259999999955,1.9434107459902954,7.7751030982796205,1.8574737990237562,1.9434107459902954,0.0,0.0,0.0,,0.0,-29.32642599999997,-3.9517469496392152,-0.9247057702025687,-15.162409855780314,-3.9517469496392152
7.043482065200806,-19.406339999999986,2.0487353700020705,6.686850258785009,-0.2959007140534066,2.0487353700020705,0.0,0.0,0.0,,0.0,52.439007000000004,-0.9151546718059745,3.3857197183212717,-15.12122098243735,-0.9151546718059745
7.043482065200806,13.201847000000015,4.9526186198700985,7.902066834343605,2.1080573097265964,4.9526186198700985,0.0,0.0,0.0,,0.0,-83.34180099999998,-8.358042442957906,-2.949393238245758,-16.02252329795995,-8.358042442957906
7.057683944702148,1.6081570000000056,8.099344265552162,10.756915556162005,4.927390673593346,8.099344265552162,0.0,0.0,0.0,,0.0,-27.998761000000002,-18.31493673716645,-12.771772488770056,-18.06517325017183,-18.31493673716645
7.057683944702148,3.8857570000000123,7.012603818515683,10.497503560302306,3.076859731793764,7.012603818515683,0.0,0.0,0.0,,0.0,-68.54675699999996,-25.711909408400192,-21.63592753678263,-20.75491282823143,-25.711909408400192
7.058404922485352,-16.86133799999999,-0.1688831518424649,4.249571077580814,-1.4505722391361349,-0.1688831518424649,0.0,0.0,0.0,,0.0,25.53603700000002,-27.025258466515133,-24.340440321168753,-23.30965968036001,-27.025258466515133
7.072042942047119,-7.448009999999982,-9.061312090661106,-3.9336724604241136,-7.206925463617489,-9.061312090661106,0.0,0.0,0.0,,0.0,-75.36272399999996,-22.55808951536691,-18.559917293337723,-24.896066512895807,-22.55808951536691
7.072042942047119,-14.86797199999998,-12.350698311107333,-6.760697915791321,-10.982892740114089,-12.350698311107333,0.0,0.0,0.0,,0.0,-61.035168,-19.3710512545204,-11.63512240053598,-25.744479954964955,-19.3710512545204
7.08774209022522,-11.722715999999991,-8.045864357974805,-2.445841606806975,-7.352443958563856,-8.045864357974805,0.0,0.0,0.0,,0.0,-27.899653999999998,-23.091579473822506,-13.290551278712915,-26.403294029534297,-23.091579473822506
7.08774209022522,-20.489040999999986,-2.0406198754322857,3.4479616235355155,-1.7341895153609646,-2.0406198754322857,0.0,0.0,0.0,,0.0,-8.283878999999956,-30.048092375681264,-23.393802711851748,-26.961690319429298,-30.048092375681264
7.08842396736145,3.678192000000024,-0.964132827863332,5.094100338514137,-2.4648967052061264,-0.964132827863332,0.0,0.0,0.0,,0.0,-77.55804599999999,-34.259177874516396,-33.9376253169446,-27.548842550560845,-34.259177874516396
7.08842396736145,-7.904277999999977,-4.994878097772077,2.327099053675081,-6.364759766307312,-4.994878097772077,0.0,0.0,0.0,,0.0,-55.66841099999999,-35.003479153788426,-37.99891788713924,-28.193139450169387,-35.003479153788426
7.102014064788818,-14.232188999999977,-9.538234475835877,-1.0857958799228857,-8.330757429720068,-9.538234475835877,0.0,0.0,0.0,,0.0,-59.924417000000005,-32.625139436440065,-32.56842754599628,-28.805214177281304,-32.625139436440065
7.102014064788818,-28.144616999999982,-11.460500814633292,-2.5736479511981116,-8.867855236614707,-11.460500814633292,0.0,0.0,0.0,,0.0,-18.852835999999968,-28.27968393671047,-22.366069570285223,-29.495000499280273,-28.27968393671047
7.117698907852173,-9.418937999999997,-11.014320779393705,-2.3528355033971025,-9.020893757728174,-11.014320779393705,0.0,0.0,0.0,,0.0,-18.579822999999976,-29.30644693800491,-20.65104021130771,-30.373624118724177,-29.30644693800491
7.117698907852173,-7.130118999999979,-9.325910281516853,-1.1441688660309364,-8.721812056551821,-9.325910281516853,0.0,0.0,0.0,,0.0,-106.10096199999998,-40.24868251061583,-33.62536105893434,-31.327008061530513,-40.24868251061583
7.118309020996094,-15.256920999999977,-7.264213918926771,1.1299191476427524,-7.8341289362912585,-7.264213918926771,0.0,0.0,0.0,,0.0,-85.05654499999997,-51.57188748763873,-48.67020335811819,-32.204237340092995,-51.57188748763873
7.118309020996094,-22.553465999999986,-6.591409019597382,3.4095481237776504,-7.551391431752262,-6.591409019597382,0.0,0.0,0.0,,0.0,14.854882000000032,-51.92442037999299,-51.14191431457117,-32.87111997524293,-51.92442037999299
7.132199048995972,-6.0305879999999945,-9.223340992185653,2.826000194836176,-9.378579602398075,-9.223340992185653,0.0,0.0,0.0,,0.0,-90.59159699999998,-44.70955218062584,-43.763974047799856,-33.17344540598638,-44.70955218062584
7.132199048995972,-13.723561999999987,-14.258226066463969,-1.4000606742228605,-12.081155758520861,-14.258226066463969,0.0,0.0,0.0,,0.0,-89.59678299999996,-40.80814187754855,-38.533155387505566,-33.054645686813295,-40.80814187754855
7.147870063781738,-23.249087999999986,-17.80555387966535,-5.498465009539586,-13.915061895533817,-17.80555387966535,0.0,0.0,0.0,,0.0,-55.537514999999985,-42.53686448052903,-39.38073454589154,-32.509750591554386,-42.53686448052903
7.147870063781738,-34.40146899999999,-17.364424477329308,-5.530475406992053,-14.843943652324604,-17.364424477329308,0.0,0.0,0.0,,0.0,9.04681800000003,-42.65732457951197,-40.51272377926403,-31.473123849006473,-42.65732457951197
7.148498058319092,-13.416890999999993,-15.135092741626634,-2.813074744793113,-14.779963933569004,-15.135092741626634,0.0,0.0,0.0,,0.0,-82.98463999999996,-35.43126396036279,-36.08341717651579,-29.88558656392325,-35.43126396036279
7.148498058319092,-12.05930699999999,-15.089060286104193,-2.0912611461339328,-13.99580577458027,-15.089060286104193,0.0,0.0,0.0,,0.0,-67.80064699999997,-25.480097090490723,-28.295017070806697,-27.787269440521424,-25.480097090490723
7.162190914154053,-20.62741799999999,-17.284109289790226,-4.673591120116441,-13.512221639780542,-17.284109289790226,0.0,0.0,0.0,,0.0,-38.99593699999997,-23.54175883609206,-25.090878893458335,-25.23750963654826,-23.54175883609206
7.162190914154053,-39.34935699999998,-17.554450561514606,-6.284510647543431,-12.615065175145226,-17.554450561514606,0.0,0.0,0.0,,0.0,36.662239,-30.827142450376375,-27.68858315400434,-22.25723741226922,-30.827142450376375
7.177855968475342,-7.234836000000001,-13.429116871837612,-2.9273062431848267,-9.869407657524482,-13.429116871837612,0.0,0.0,0.0,,0.0,-101.927234,-33.87251222358759,-26.265337594324524,-18.916785856563326,-33.87251222358759
7.177855968475342,-6.1053859999999815,-7.81095262982402,3.2445029499229596,-6.919118111904864,-7.81095262982402,0.0,0.0,0.0,,0.0,-58.09186599999998,-22.249294048922096,-14.593749724189866,-15.24159027139283,-22.249294048922096
7.178509950637817,-10.32025299999998,-5.256036761687502,6.16119473176585,-5.949930170695587,-5.256036761687502,0.0,0.0,0.0,,0.0,6.780438000000004,-3.6467810917958343,-0.8359796416331182,-11.21900066394256,-3.6467810917958343
7.178509950637817,-23.54079999999999,-6.417800337114765,3.280194034387095,-5.934009100727454,-6.417800337114765,0.0,0.0,0.0,,0.0,29.59382800000003,7.275646927908845,4.447324499038092,-7.093924125344136,7.275646927908845
7.192158937454224,-2.825493999999992,-7.814276137216051,-1.477436576889505,-5.534105103276201,-7.814276137216051,0.0,0.0,0.0,,0.0,-22.27110399999998,7.077297205894607,2.175518704088695,-3.073307865412597,7.077297205894607
7.192158937454224,-7.945416999999992,-6.254715511508724,-2.746337170079786,-4.454436372819748,-6.254715511508724,0.0,0.0,0.0,,0.0,-26.36629499999998,3.213487435354426,-0.04787367057457015,0.8749406006050359,3.213487435354426
7.207781076431274,-2.387925999999993,-2.1338336836465235,0.249973369552968,-2.1753204053511714,-2.1338336836465235,0.0,0.0,0.0,,0.0,-36.11995400000001,2.673639516676364,0.8596749895475169,4.715985501301027,2.673639516676364
7.207781076431274,-16.51352799999998,1.8106089707135031,4.003166616782627,0.4940631210702122,1.8106089707135031,0.0,0.0,0.0,,0.0,90.83843000000002,7.419208802117097,2.8416628316856274,8.786385199647471,7.419208802117097
7.208323001861572,7.653706,3.966857069128303,5.601426993721185,2.0915582154263994,3.966857069128303,0.0,0.0,0.0,,0.0,-38.48731099999998,16.609802415030764,4.671231560822182,13.394140279512223,16.609802415030764
7.208323001861572,7.2460570000000075,5.023378488297456,5.149193803059704,3.0666335506460807,5.023378488297456,0.0,0.0,0.0,,0.0,-26.168079999999975,26.869101200207798,6.479278804122476,18.060772879272363,26.869101200207798
7.22203803062439,2.245810000000006,6.096212935878509,3.872451009291553,4.353638015129932,6.096212935878509,0.0,0.0,0.0,,0.0,52.594213000000025,32.876418394957604,7.012421206496587,22.26511714679096,32.876418394957604
7.22203803062439,-8.240868999999975,6.950250595274047,2.1078599605610213,5.24266579837957,6.950250595274047,0.0,0.0,0.0,,0.0,70.96460100000002,33.96791063816638,6.651166992589886,25.265913891070472,33.96791063816638
7.237683057785034,7.990296999999998,6.4366545754786895,-0.3834846471083715,4.962059884141273,6.4366545754786895,0.0,0.0,0.0,,0.0,-6.668241999999964,35.78016393974307,8.709516545947974,26.329526348384054,35.78016393974307
7.237683057785034,8.805595000000011,4.288108017152157,-3.4221676676891972,3.9669846673230524,4.288108017152157,0.0,0.0,0.0,,0.0,0.19447500000001128,39.304961705980915,11.653969427501885,25.80335723254416,39.304961705980915
7.238497018814087,-0.6563519999999983,2.10621687920331,-6.070110956915555,2.755691767223362,2.10621687920331,0.0,0.0,0.0,,0.0,50.16701800000004,36.965929569111026,8.465596290295156,24.243848228874953,36.965929569111026
7.238497018814087,-16.79401999999999,1.9861129033172638,-6.877673840667254,1.9938908915351452,1.9861129033172638,0.0,0.0,0.0,,0.0,49.68083100000001,26.294319782424836,-0.46100081515003666,22.216583852688238,26.294319782424836
7.252043008804321,9.935045000000002,3.9869027629960607,-5.163980878026908,2.3536943649722772,3.9869027629960607,0.0,0.0,0.0,,0.0,6.769219000000021,16.9100256585796,-4.816133744384608,20.389222226132798,16.9100256585796
7.252043008804321,8.674698000000006,6.008121802500128,-2.2194316924778406,3.4763524297251744,6.008121802500128,0.0,0.0,0.0,,0.0,-42.26835,16.42894586117239,-0.3499837429118635,18.57866978005329,16.42894586117239
7.267758131027222,4.246656999999999,6.65890874452349,-0.09076107357607555,4.825474394980478,6.65890874452349,0.0,0.0,0.0,,0.0,16.608895000000018,18.991438047355196,3.91429040647564,16.58709487284152,18.991438047355196
7.267758131027222,-9.538613999999995,6.8253976872789615,0.7516010491363527,5.773963334295277,6.8253976872789615,0.0,0.0,0.0,,0.0,92.69342,16.319354281322894,0.8472102045761254,14.563654641828041,16.319354281322894
7.268326997756958,10.398792000000014,7.50953127959042,1.2931892848077045,5.678277790196964,7.50953127959042,0.0,0.0,0.0,,0.0,-51.42362499999996,11.78009082780476,-2.6666252333162763,11.890521396358862,11.78009082780476
7.268326997756958,13.962917000000004,7.609285904254558,1.5884854568190852,4.806750040806752,7.609285904254558,0.0,0.0,0.0,,0.0,-20.98831899999999,11.99238912962334,1.1566574141782215,9.200111179866843,11.99238912962334
7.281934022903442,-0.4992759999999805,5.401976980490043,0.1719290351614715,3.6125110981517734,5.401976980490043,0.0,0.0,0.0,,0.0,23.14250100000004,11.70747413727354,5.2999035153416365,9.356835376414935,11.70747413727354
7.281934022903442,-10.271634999999975,1.6158958537738342,-3.0398125716208,2.592568898851167,1.6158958537738342,0.0,0.0,0.0,,0.0,44.55716800000005,1.7319204334723857,-0.6902155928552709,10.269455017912033,1.7319204334723857
7.2976601123809814,1.0527820000000077,-0.6000848868454105,-4.780961847650727,2.266739341202154,-0.6000848868454105,0.0,0.0,0.0,,0.0,-48.891711999999984,-12.239812941900022,-10.522474566168999,5.876304103755469,-12.239812941900022
7.2976601123809814,4.9796770000000095,0.6829576883453732,-1.9391347912246588,2.4386106547709483,0.6829576883453732,0.0,0.0,0.0,,0.0,-34.279923,-12.847509914261613,-6.834402439962323,2.5266150983327065,-12.847509914261613
7.298334121704102,0.9443250000000205,3.590400530682565,3.426306106597166,2.7729625310682637,3.590400530682565,0.0,0.0,0.0,,0.0,-17.06516399999998,5.715782204344095,13.897629309166323,11.15896806854122,5.715782204344095
7.298334121704102,-7.672404,4.656790648148987,5.530381356969375,2.8857494193779667,4.656790648148987,0.0,0.0,0.0,,0.0,89.61922200000004,26.53035980688501,32.68728373960941,21.952343481509594,26.53035980688501
7.311959981918335,4.299015000000026,2.9390215695351163,1.8295372328586228,2.4013983396964473,2.9390215695351163,0.0,0.0,0.0,,0.0,0.7143210000000408,28.47177683795941,29.95481854400042,20.51075532589446,28.47177683795941
7.311959981918335,5.3910660000000235,0.39181996905245714,-3.9651086713473993,1.5397290158658588,0.39181996905245714,0.0,0.0,0.0,,0.0,-13.572096999999985,12.800183513745893,11.219993869362536,12.639036932404684,12.800183513745893
7.3277459144592285,-2.832973999999979,-1.200858087150012,-6.577523360790093,0.5965714696438704,-1.200858087150012,0.0,0.0,0.0,,0.0,-32.35761499999995,-0.5026912222795417,-1.069985504293714,7.44116047136359,-0.5026912222795417
7.3277459144592285,-15.316759999999988,-1.7226825329545274,-5.026983829381599,0.026429479705202784,-1.7226825329545274,0.0,0.0,0.0,,0.0,69.48360100000002,-3.204063838012859,-0.20493448638786171,3.894146402589764,-3.204063838012859
7.328429937362671,0.570335,-1.4724856459777491,-2.27936425244267,0.2778432372715199,-1.4724856459777491,0.0,0.0,0.0,,0.0,-27.678999999999974,-7.207795401528331,-0.8965043118373295,1.0264185199539975,-7.207795401528331
7.328429937362671,6.722471000000013,-0.29140828044428074,-0.3230929927009675,1.0489251663258985,-0.29140828044428074,0.0,0.0,0.0,,0.0,-62.325432999999975,-17.73839465233605,-9.54275839371217,-0.34523040729242815,-17.73839465233605
7.342063903808594,-0.7498489999999833,1.6953253793457015,1.7781093119193647,1.9541201190946034,1.6953253793457015,0.0,0.0,0.0,,0.0,-30.599861999999973,-20.072609124417585,-11.240166986834886,-2.034597017363478,-20.072609124417585
7.342063903808594,-12.313619999999986,3.3946150101042227,4.539294169949587,2.5024367453659297,3.3946150101042227,0.0,0.0,0.0,,0.0,67.63983000000002,-3.937367247668047,4.290169300287096,-2.2603984790350915,-3.937367247668047
7.357784986495972,10.544648000000024,3.443611777303564,5.567199227027418,2.1498365989156105,3.443611777303564,0.0,0.0,0.0,,0.0,-28.741130999999996,16.25772012956918,22.510903055578886,4.230152689235264,16.25772012956918
7.357784986495972,5.316268000000008,1.6982731150641237,2.835146552724716,1.259362828892462,1.6982731150641237,0.0,0.0,0.0,,0.0,4.708534000000043,18.69007606562878,22.278691938840236,10.355649534095935,18.69007606562878
7.358513116836548,-1.3295339999999953,-0.4510491319541237,-1.530360284141123,0.31334179897820336,-0.4510491319541237,0.0,0.0,0.0,,0.0,-16.93800699999997,2.163004999236073,3.9923637038188744,4.709307513368067,2.163004999236073
7.358513116836548,-17.381184999999988,-1.6689788131558156,-3.458484220408044,-0.4858319207337691,-1.6689788131558156,0.0,0.0,0.0,,0.0,51.82379300000002,-14.289138314422413,-12.25207917383836,-4.380637120177103,-14.289138314422413
7.372091054916382,6.483117000000021,-2.0279715901887654,-2.070389411067833,-0.6269353067443607,-2.0279715901887654,0.0,0.0,0.0,,0.0,-48.24844999999999,-15.933978231284271,-12.634085637324953,-4.123268264876333,-15.933978231284271
7.372091054916382,-0.9742430000000013,-2.3432891995484826,-0.234311612319122,-0.4337915545633598,-2.3432891995484826,0.0,0.0,0.0,,0.0,-43.109826999999996,-6.776491546550683,-2.676786257678115,0.7061368253291871,-6.776491546550683
7.387712001800537,-1.6399459999999806,-2.726047578072188,-0.34512597432735337,-0.9857291541277254,-2.726047578072188,0.0,0.0,0.0,,0.0,11.889141999999993,0.9955052284744528,4.659655981212914,2.618530163069003,0.9955052284744528
7.387712001800537,-15.795467000000002,-2.1492661443093612,-1.2283602874377018,-1.316519479880291,-2.1492661443093612,0.0,0.0,0.0,,0.0,53.07292000000001,2.92261050350006,5.270325488105859,3.0466905473212864,2.92261050350006
7.38850212097168,5.3349680000000035,0.4192893020900685,-0.03314859583521318,0.1579369669767178,0.4192893020900685,0.0,0.0,0.0,,0.0,-34.29114299999998,2.245947772588268,3.139957955926895,3.9407587710305028,2.245947772588268
7.38850212097168,7.74346300000002,3.8574780140830343,3.1575886138171816,1.5705964249172302,3.8574780140830343,0.0,0.0,0.0,,0.0,-17.386795000000006,0.8359470587221273,0.45382663044924076,4.834362262133403,0.8359470587221273
7.401982069015503,4.568288000000024,4.5646941339830445,4.414764491657654,0.929272496234411,4.5646941339830445,0.0,0.0,0.0,,0.0,-4.087710999999956,-1.7069007118102877,-3.3506400178797335,5.452432080411921,-1.7069007118102877
7.401982069015503,-10.032280999999983,0.3392646525432651,0.9606583699281498,-1.1273797162336292,0.3392646525432651,0.0,0.0,0.0,,0.0,42.208511000000044,-4.110224695116641,-6.427479720235905,5.812679141126616,-4.110224695116641
7.417702913284302,-4.328933999999975,-5.871329686202328,-4.545137808008871,-4.448443317055955,-5.871329686202328,0.0,0.0,0.0,,0.0,-21.788657,-5.2782420540280235,-5.834595283588447,6.219227837765989,-5.2782420540280235
7.417702913284302,-3.311680999999993,-8.753030645140145,-7.176181887370574,-6.962958896497558,-8.753030645140145,0.0,0.0,0.0,,0.0,-38.16193899999996,-6.2581998350529995,-2.1031816676904977,6.5007770334465365,-6.2581998350529995
7.418415069580078,-4.949756999999977,-6.884490653338549,-5.772217863106326,-5.281152550063724,-6.884490653338549,0.0,0.0,0.0,,0.0,-16.47425999999996,-6.628578377000314,2.1057773319715976,5.786598290850376,-6.628578377000314
7.418415069580078,-17.160529999999994,-3.6862676606085674,-3.282235884080939,-2.2280948554503275,-3.6862676606085674,0.0,0.0,0.0,,0.0,64.41229700000002,-3.033459328394093,5.829298635029316,5.430552773616472,-3.033459328394093
7.432081937789917,0.13650700000002303,-2.651056521878419,-2.5107837139100355,-2.275727575541362,-2.651056521878419,0.0,0.0,0.0,,0.0,-18.228273,6.3353690130364795,10.446808644669918,7.441543168825077,6.3353690130364795
7.432081937789917,4.658046000000013,-3.97571861023903,-3.730608675736252,-3.691576980457353,-3.97571861023903,0.0,0.0,0.0,,0.0,-27.301269999999988,16.945753745131736,15.611263756955177,9.689986923515956,16.945753745131736
7.447874069213867,-5.480822999999987,-5.560206063335808,-5.659861472494809,-3.7711087554206055,-5.560206063335808,0.0,0.0,0.0,,0.0,17.03150400000004,19.087014540668346,15.938079583230932,9.856446224747147,19.087014540668346
7.447874069213867,-23.327624999999983,-5.568164336659501,-6.814041067279796,-3.0845772889471577,-5.568164336659501,0.0,0.0,0.0,,0.0,102.32366300000001,8.13491812424527,7.679495976749498,8.373827762565275,8.13491812424527
7.44848108291626,8.315668000000016,-3.774854867109715,-5.814511594170655,-2.3772460243765368,-3.774854867109715,0.0,0.0,0.0,,0.0,-87.150889,-6.161529674865332,-1.795715444108291,5.0182086183536585,-6.161529674865332
7.44848108291626,0.6451330000000155,-1.23480870165915,-2.6479326196592665,-1.716890157231191,-1.23480870165915,0.0,0.0,0.0,,0.0,3.7735590000000343,-8.386361705013185,-0.5885278888294714,2.2089385776167227,-8.386361705013185
7.462086915969849,-0.07666699999998627,0.6895083610583028,0.672807200717357,-1.1862726161767239,0.6895083610583028,0.0,0.0,0.0,,0.0,-22.977945999999974,3.275811030339497,10.781621796715045,3.9913316448248315,3.275811030339497
7.462086915969849,-7.283454999999975,1.2445459081864994,1.561261937410169,-0.6554880242013633,1.2445459081864994,0.0,0.0,0.0,,0.0,81.63827600000002,14.391207050720157,18.50614193610359,7.108266827091941,14.391207050720157
7.477804899215698,2.0962140000000034,1.0069635630176044,-0.12294992098979862,-0.5079373167401958,1.0069635630176044,0.0,0.0,0.0,,0.0,-1.8624699999999734,12.748793879000416,13.487744126419448,6.361454516356823,12.748793879000416
7.477804899215698,9.05242800000002,1.2956632690107808,-1.557557200711431,-0.44878897604805723,1.2956632690107808,0.0,0.0,0.0,,0.0,-53.13649899999996,2.311755647085015,2.12447503071025,3.764008880534599,2.311755647085015
7.478457927703857,4.198038000000025,2.144393081317872,-0.8136467901122177,1.070551512534897,2.144393081317872,0.0,0.0,0.0,,0.0,7.356382999999994,-5.011477931214337,-4.757465760891264,2.574066547225092,-5.011477931214337
7.478457927703857,-14.542599999999993,1.4892029703956324,0.12169485803332858,1.9065415472810963,1.4892029703956324,0.0,0.0,0.0,,0.0,54.501562000000035,-4.7149930788660095,-5.7114818147612585,1.9235703208095243,-4.7149930788660095
7.4920899868011475,2.5973610000000065,-2.4756813097966877,-2.0482108764776497,-1.4511588993730224,-2.4756813097966877,0.0,0.0,0.0,,0.0,-21.751258000000007,-0.6756863356102096,-5.099220611113829,0.719797544800309,-0.6756863356102096
7.4920899868011475,5.1255330000000185,-7.726982871446772,-6.578599575982761,-5.197709895627685,-7.726982871446772,0.0,0.0,0.0,,0.0,-53.30479399999996,2.603386881803726,-4.151579471095108,-0.5707761872934756,2.603386881803726
7.507860898971558,-14.542599999999993,-8.652116485969836,-8.081020791840775,-4.594638898740882,-8.652116485969836,0.0,0.0,0.0,,0.0,23.737144999999998,2.300521912418038,-2.999909353716693,-1.5951035014422057,2.300521912418038
7.507860898971558,-16.214335999999975,-2.322376278254475,-3.124232046180559,-1.167001498402131,-2.322376278254475,0.0,0.0,0.0,,0.0,58.03202700000003,-1.8519137163126023,-3.9402946755261943,-1.930985134037793,-1.8519137163126023
7.508517026901245,16.43873100000002,6.384117688145448,4.4260968107367065,3.5196563414744317,6.384117688145448,0.0,0.0,0.0,,0.0,-51.60687999999999,-5.10804303116964,-7.2204523022380815,-1.1931741424755093,-5.10804303116964
7.508517026901245,14.026495000000011,9.650949786762268,7.882039662410957,7.138666990454684,9.650949786762268,0.0,0.0,0.0,,0.0,-21.66524099999998,-2.20624356221194,-9.199197991935137,0.2397702139828915,-2.20624356221194
7.522097110748291,8.775676000000004,6.4192857266254135,6.207642386703717,5.934635124839284,6.4192857266254135,0.0,0.0,0.0,,0.0,0.5497650000000363,5.035766938598573,-6.550850222789337,1.9262216087534296,5.035766938598573
7.522097110748291,-13.125177999999977,3.1014168862495417,4.30587905429333,2.7458485062880706,3.1014168862495417,0.0,0.0,0.0,,0.0,70.25028100000003,10.097738857859635,0.7274764550165909,3.0845061013365807,10.097738857859635
7.53783106803894,10.757823000000002,4.168114228373055,5.11698701567257,2.4798213907902795,4.168114228373055,0.0,0.0,0.0,,0.0,-16.773451999999963,9.900499712443061,8.755462910805454,2.943800967180474,9.900499712443061
7.53783106803894,12.384679000000006,6.396806940507998,5.57918188653289,3.3472694251729815,6.396806940507998,0.0,0.0,0.0,,0.0,-42.15241299999997,5.59313882747272,11.002241104013848,1.8782946559925842,5.59313882747272
7.5385401248931885,10.215537000000012,4.842348619005805,2.4118371027217935,2.386879182520045,4.842348619005805,0.0,0.0,0.0,,0.0,13.142008000000033,-1.4025999073296809,3.3958407313976986,0.4459909061768553,-1.4025999073296809
7.5385401248931885,-17.54947999999999,0.8757271744258979,-1.489926259850957,0.9425138050477395,0.8757271744258979,0.0,0.0,0.0,,0.0,48.678538,-8.494637234203374,-8.890090054543512,-0.627576554808645,-8.494637234203374
7.552109956741333,4.635606000000024,-0.13442943533475685,-0.8837510824259125,0.6008511530838037,-0.13442943533475685,0.0,0.0,0.0,,0.0,-47.39575199999996,-11.182835123304265,-15.396807091342048,-0.5958231816265441,-11.182835123304265
7.552109956741333,13.738523000000015,2.6988597874445,3.649835433855721,0.9326848663667358,2.6988597874445,0.0,0.0,0.0,,0.0,-59.254975,-9.097372343300457,-14.20940100120481,0.22819017149696824,-9.097372343300457
7.5677809715271,2.24207100000001,4.641399515700933,6.044256561238081,1.7093294873292306,4.641399515700933,0.0,0.0,0.0,,0.0,29.380653999999993,-6.898155451342865,-12.490739640416386,1.3407054771893145,-6.898155451342865
7.5677809715271,-9.811626999999987,2.620266881397812,3.314497644150704,2.410390920948242,2.620266881397812,0.0,0.0,0.0,,0.0,29.16374000000002,-4.919862245757962,-11.561327698920042,2.136788945883223,-4.919862245757962
7.568419933319092,5.798715000000016,-0.5740703005448016,-0.3911515367332091,1.886673649045013,-0.5740703005448016,0.0,0.0,0.0,,0.0,-44.785302,0.6218503190791105,-5.9410809203327695,2.0155549446284717,0.6218503190791105
7.568419933319092,3.218184000000008,-0.6722308153712971,-0.1572187679785758,1.1781707916651005,-0.6722308153712971,0.0,0.0,0.0,,0.0,-5.067565000000002,5.673217498318793,1.210639471696621,1.2830282346091548,5.673217498318793
7.582158088684082,4.0409620000000075,2.2626179160518642,3.19305987758232,2.1173226018183438,2.2626179160518642,0.0,0.0,0.0,,0.0,-8.111842999999965,1.7153392096547662,0.3108019250550269,0.4572023648172864,1.7153392096547662
7.582158088684082,-6.90572499999999,4.66332854779915,5.5449894288186465,3.4497652978129234,4.66332854779915,0.0,0.0,0.0,,0.0,51.599399000000005,-7.327672742881095,-5.947234755886876,0.20975127653607023,-7.327672742881095
7.597737073898315,8.341847000000001,4.6413820645457085,5.549397531620737,3.1999456601909673,4.6413820645457085,0.0,0.0,0.0,,0.0,-60.45548299999996,-7.572224205351048,-4.393038892416973,1.0695354481661095,-7.572224205351048
7.597737073898315,8.311928000000023,3.4585714787256814,4.668658602791875,2.141792671010521,3.4585714787256814,0.0,0.0,0.0,,0.0,-3.425748999999996,4.658377342771072,8.1456574349542,2.999840134472499,4.658377342771072
7.598376989364624,5.581801000000013,2.3438390196274868,3.2090638381168053,1.5458702519434329,2.3438390196274868,0.0,0.0,0.0,,0.0,-0.5048869999999965,18.058849048750574,20.447712196445792,5.564107696733733,18.058849048750574
7.598376989364624,-14.138690999999994,0.891227643820704,0.30346540902981245,0.9143435955520745,0.891227643820704,0.0,0.0,0.0,,0.0,72.453082,21.044243406424492,22.433922559033082,7.336697629344445,21.044243406424492
7.612149953842163,4.119500000000016,-1.1711467718546795,-3.347837545665443,-0.23733838161678716,-1.1711467718546795,0.0,0.0,0.0,,0.0,-7.868749999999977,12.690077592916463,14.501342188215693,8.232930518266812,12.690077592916463
7.612149953842163,3.3416010000000256,-2.9780820051639156,-5.489873027064691,-1.5021103556669053,-2.9780820051639156,0.0,0.0,0.0,,0.0,-46.333620999999994,0.2975051244508983,3.2791545640665283,7.651053208700305,0.2975051244508983
7.627677917480469,-3.5996529999999893,-3.636068279781545,-4.9838172557707985,-2.6092542905271543,-3.636068279781545,0.0,0.0,0.0,,0.0,-21.870934999999974,-8.581750170082579,-5.38817354826201,2.1585909301629913,-8.581750170082579
7.627677917480469,-15.675789999999978,-2.976712303980955,-2.619024469122986,-2.7113691761311274,-2.976712303980955,0.0,0.0,0.0,,0.0,64.356198,-9.952936630422968,-8.078313766055345,-2.406690216504509,-9.952936630422968
7.628365993499756,1.1014010000000098,-1.1879204653125917,0.23068446173259605,-1.0192292599435993,-1.1879204653125917,0.0,0.0,0.0,,0.0,-42.10379399999999,-2.524819413306273,-2.117140751725022,3.414884878258788,-2.524819413306273
7.628365993499756,11.012135999999998,1.5464801649278268,2.734567072398252,1.7873490817476219,1.5464801649278268,0.0,0.0,0.0,,0.0,-56.405170999999996,8.608007563591833,8.530933019595661,9.971765204811362,8.608007563591833
7.642024040222168,3.8203080000000114,4.935340642101373,4.731496374733348,4.907213691761668,4.935340642101373,0.0,0.0,0.0,,0.0,25.958645000000047,9.200934185451864,8.829675396644491,6.458172740109345,9.200934185451864
7.642024040222168,-8.700876999999991,8.083308017198512,6.322140389248316,7.116732648107404,8.083308017198512,0.0,0.0,0.0,,0.0,65.79606000000001,-8.491721694147493,-9.676561350080224,-2.265774241610792,-8.491721694147493
7.65774393081665,17.040855000000022,9.455236331076197,7.5962302162995,7.140318001892723,9.455236331076197,0.0,0.0,0.0,,0.0,-118.53986899999995,-28.432038282477833,-30.105709051482837,-14.815140869779665,-28.432038282477833
7.65774393081665,16.82394000000002,8.227567008846542,8.551714131775466,5.61278868245757,8.227567008846542,0.0,0.0,0.0,,0.0,-30.704578999999967,-25.376234531116978,-25.91830378001636,-20.443252648219044,-25.376234531116978
7.658420085906982,-2.623538999999994,5.295648714694212,8.281692714425754,3.576472581004541,5.295648714694212,0.0,0.0,0.0,,0.0,3.048018000000013,4.835527968275644,6.550543471114047,-0.7238711997707338,4.835527968275644
7.658420085906982,-6.849626000000001,2.2501977192974247,5.377050203799692,1.9006321839587903,2.2501977192974247,0.0,0.0,0.0,,0.0,67.77446700000002,39.8204870515129,42.10622989632063,24.63464884965399,39.8204870515129
7.672051906585693,6.961824000000007,0.5339594084228249,0.5492792237592046,1.4492401624289877,0.5339594084228249,0.0,0.0,0.0,,0.0,10.651235000000042,52.05237003473532,51.64849773590123,26.088233325437233,52.05237003473532
