time_s,raw_eeg1,bandpass_eeg1,nlms_eeg1,wavelet_eeg1,winsor_eeg1,raw_eeg2,bandpass_eeg2,nlms_eeg2,wavelet_eeg2,winsor_eeg2,raw_eeg3,bandpass_eeg3,nlms_eeg3,wavelet_eeg3,winsor_eeg3
5.002336025238037,11.531981000000002,-5.720106069246654,-5.720106069246654,-7.6451468108457,-5.720106069246654,0.0,0.0,0.0,,0.0,26.934759999999983,-4.685852855753678,-4.685852855753678,-2.095057115112702,-4.685852855753678
5.002336025238037,31.77606,-16.951621387887293,-16.951621387887293,-14.217252910531203,-16.951621387887293,0.0,0.0,0.0,,0.0,63.073413000000016,-6.134738481387021,-6.134738481387021,-0.3207777473617336,-6.134738481387021
5.003046989440918,-25.014320999999995,-19.496022865625864,-19.496022865625864,-17.54691921316897,-19.496022865625864,0.0,0.0,0.0,,0.0,-0.10845699999998715,3.347227945466864,3.347227945466864,-0.563510182813323,3.347227945466864
5.003046989440918,-13.334614000000002,-15.216882256774769,-13.685425764958492,-15.255176973838639,-15.216882256774769,0.0,0.0,0.0,,0.0,29.511550999999997,12.96420423409709,12.369030594907988,-0.2977656330354006,12.96420423409709
5.016925096511841,7.971596000000005,-10.21846505723025,-10.94090104771633,-9.790661831644723,-10.21846505723025,0.0,0.0,0.0,,0.0,67.33689900000002,6.296315191864888,4.620696971761741,-0.44429771043985755,6.296315191864888
5.016925096511841,36.29759899999999,-10.802971562194967,-14.872793921155154,-10.765265370895483,-10.802971562194967,0.0,0.0,0.0,,0.0,12.322969999999998,-13.81511275446055,-15.492771284866931,-4.038240349163562,-13.81511275446055
5.032289981842041,-29.87619099999999,-15.605720177750236,-18.736537546687074,-14.225123965334957,-15.605720177750236,0.0,0.0,0.0,,0.0,-10.142608999999993,-23.82151541196368,-24.131340982044975,-6.787922918660261,-23.82151541196368
5.032289981842041,-12.534274999999994,-17.569000894098636,-15.468589398447726,-14.36045236785134,-17.569000894098636,0.0,0.0,0.0,,0.0,11.384255999999993,-10.688914680483498,-9.700001873296348,-1.015405313078763,-10.688914680483498
5.033013105392456,7.290935000000019,-15.295940062518099,-9.253771978757833,-12.744990503577336,-15.295940062518099,0.0,0.0,0.0,,0.0,43.27064300000001,9.09197887652891,10.110103668133759,6.187561044588173,9.09197887652891
5.033013105392456,27.991281000000015,-13.181541376052353,-9.331158565061067,-12.266517992657707,-13.181541376052353,0.0,0.0,0.0,,0.0,71.28997299999997,13.746357499074334,13.943122423847182,3.7969383719912666,13.746357499074334
5.047316074371338,-26.81321299999999,-11.450806431802425,-12.480051997121242,-11.942241578880541,-11.450806431802425,0.0,0.0,0.0,,0.0,-2.019545999999991,5.174687571573225,4.909255185224975,-2.4749683329804806,5.174687571573225
5.047316074371338,-0.8583069999999964,-7.5580799952870725,-10.400137074950534,-9.480635131370184,-7.5580799952870725,0.0,0.0,0.0,,0.0,26.50093099999998,-1.0580470874179726,-1.190523687612182,-3.669610092583252,-1.0580470874179726
5.048022985458374,15.16903400000001,-5.154394096742328,-6.841150968925397,-7.238174286810999,-5.154394096742328,0.0,0.0,0.0,,0.0,23.896091000000013,-1.0806215039929077,-1.012862614848291,-1.8741040620544076,-1.0806215039929077
5.061691045761108,32.97469699999999,-9.181724666291275,-9.987851775189567,-9.45383923710469,-9.181724666291275,0.0,0.0,0.0,,0.0,71.04500999999999,-0.06617274668757167,0.08981990174824872,-1.3019638989833686,-0.06617274668757167
5.061691045761108,-31.11970799999999,-14.709451079608582,-15.37049691855158,-12.747060626255175,-14.709451079608582,0.0,0.0,0.0,,0.0,-13.027940999999998,3.8351929012453785,3.872097046148274,-1.0862086507097433,3.8351929012453785
5.077398061752319,-9.585363999999998,-13.448473158032487,-13.821805154837087,-11.346797726843414,-13.448473158032487,0.0,0.0,0.0,,0.0,27.632250999999997,12.143013220109115,11.461044598613974,1.5440403787992694,12.143013220109115
5.077398061752319,11.526371000000012,-8.545992465502835,-9.870292904282024,-8.650550084747088,-8.545992465502835,0.0,0.0,0.0,,0.0,66.15695999999997,13.18979058544059,11.404389750586594,3.305961944718898,13.18979058544059
5.078428030014038,35.469211,-9.576060065490074,-13.598157744689884,-10.162416057278877,-9.576060065490074,0.0,0.0,0.0,,0.0,38.76967300000001,-1.035044321832412,-3.1130702190998942,-1.7547899202106103,-1.035044321832412
5.078428030014038,-35.502871,-15.508714082472885,-20.25688168784125,-13.130421394658443,-15.508714082472885,0.0,0.0,0.0,,0.0,-15.941323000000011,-14.807045402300563,-15.877688852705282,-7.679403860491009,-14.807045402300563
5.091653108596802,-14.70154699999999,-16.806680448738923,-17.953817840106122,-13.416301936101453,-16.806680448738923,0.0,0.0,0.0,,0.0,12.934443999999985,-8.10614929203011,-8.208769038135552,-5.151248810409362,-8.10614929203011
5.091653108596802,10.288464000000005,-12.535122873104699,-9.886840200699396,-12.510809378782591,-12.535122873104699,0.0,0.0,0.0,,0.0,35.074652000000015,11.935412030088063,11.549882553273392,0.6842513090956928,11.935412030088063
5.123718976974487,30.54750200000001,-11.047215076521022,-9.603977437138841,-12.557255637617308,-11.047215076521022,0.0,0.0,0.0,,0.0,91.81641400000001,20.8286001722912,19.477406402432422,1.744048764899633,20.8286001722912
5.123718976974487,-35.14384,-14.658545732209298,-17.794133434614036,-13.019137018516831,-14.658545732209298,0.0,0.0,0.0,,0.0,-6.168965000000014,12.117034789983206,10.214582112954519,0.4269963355338001,12.117034789983206
5.124409914016724,-12.734359999999995,-17.111039307008685,-22.37061942431862,-13.072513542981252,-17.111039307008685,0.0,0.0,0.0,,0.0,22.632004999999992,2.1412871740927235,0.116626707115282,0.4688767472903243,2.1412871740927235
5.124409914016724,3.5304649999999924,-15.644105658950478,-19.487469050229194,-12.631291877811929,-15.644105658950478,0.0,0.0,0.0,,0.0,38.89683000000002,2.0227627654326503,-0.3030657016726277,0.753283075950816,2.0227627654326503
5.1251749992370605,28.527956000000017,-13.467117916024744,-15.706876740078705,-12.02046494584672,-13.467117916024744,0.0,0.0,0.0,,0.0,42.939661,4.272895007636988,1.5397052520282797,0.05360576216056173,4.272895007636988
5.1251749992370605,-31.314183,-11.099473525189504,-13.226363106283948,-10.755396079669547,-11.099473525189504,0.0,0.0,0.0,,0.0,11.296367999999973,-0.49998050137444183,-3.257496709169317,-1.3705691958454134,-0.49998050137444183
5.125938892364502,-5.321877999999998,-6.319421629898246,-8.446088827964198,-7.714004483273166,-6.319421629898246,0.0,0.0,0.0,,0.0,6.520515999999986,-8.835708372989782,-11.1329397612356,-2.897303570478747,-8.835708372989782
5.125938892364502,21.055635999999993,-1.5695103475552057,-2.2277059284541068,-4.586476022617023,-1.5695103475552057,0.0,0.0,0.0,,0.0,2.1747520000000122,-12.330664522959989,-13.835175588339197,-4.065252267876144,-12.330664522959989
5.136765003204346,38.943578,-1.288188927767064,0.36514267885389673,-4.004017392120934,-1.288188927767064,0.0,0.0,0.0,,0.0,47.75665299999997,-9.76623874723131,-10.311859971853542,-4.831636198484022,-9.76623874723131
5.136765003204346,-27.99689099999999,-3.400361180399284,-0.21163720255009988,-4.38205027891607,-3.400361180399284,0.0,0.0,0.0,,0.0,15.907665000000009,-3.835561326812786,-3.705384880016784,-3.3875737212597357,-3.835561326812786
5.1516149044036865,3.5042860000000076,-2.4718289637873285,0.6272307837675575,-3.2641547548359418,-2.4718289637873285,0.0,0.0,0.0,,0.0,-17.93468999999999,5.228826624049258,5.21550759353143,2.056298739182047,5.228826624049258
5.1516149044036865,22.03549000000001,0.8913004316109367,2.3057436407641303,-1.567293260631682,0.8913004316109367,0.0,0.0,0.0,,0.0,66.041023,14.938937843454784,14.114747736064185,9.76138132805538,14.938937843454784
5.1673760414123535,34.87830700000001,1.8843154820143333,0.6953204505863835,-0.6435261031397501,1.8843154820143333,0.0,0.0,0.0,,0.0,71.80794900000001,19.877986730731937,18.33271492164683,17.4820996509042,19.877986730731937
5.1673760414123535,-13.80397099999999,0.1412120676719575,-3.1565534250545486,-0.49860263684130085,0.1412120676719575,0.0,0.0,0.0,,0.0,15.357898999999975,21.839765230282502,19.86363821755904,23.060569410752688,21.839765230282502
5.168117046356201,-3.4033090000000072,-0.8557764740368544,-4.93822502461585,-0.7920790440179833,-0.8557764740368544,0.0,0.0,0.0,,0.0,31.458168999999998,27.317764792493676,24.600302402536762,24.430149346222734,27.317764792493676
5.168117046356201,20.412374,-0.7553393277443623,-5.6061758628263005,-1.39091506286028,-0.7553393277443623,0.0,0.0,0.0,,0.0,67.922193,32.312403737756426,28.240992476597313,22.199989310290142,32.312403737756426
5.18163800239563,35.768403000000006,-1.8092556255318317,-8.638530280770812,-2.59952031521325,-1.8092556255318317,0.0,0.0,0.0,,0.0,85.76525600000002,26.473054885457234,21.100324971197118,17.616368657422406,26.473054885457234
5.18163800239563,-22.929327,-2.768880306529219,-10.84530204936618,-3.1196320456315987,-2.768880306529219,0.0,0.0,0.0,,0.0,-2.46272399999998,12.36050347755753,6.4715373800512435,12.16930509031856,12.36050347755753
5.197400093078613,1.4735200000000077,-0.03957233060265786,-6.336770939279019,-1.0361293636152993,-0.03957233060265786,0.0,0.0,0.0,,0.0,11.038315000000011,2.5379497001187348,-2.8944760825389677,8.21575626425322,2.5379497001187348
5.197400093078613,22.293543,5.289352320122326,2.2697547058424137,1.8577653288701819,5.289352320122326,0.0,0.0,0.0,,0.0,33.45901500000002,0.31843484663026106,-3.943448540967333,5.6981251682880565,0.31843484663026106
5.198070049285889,46.875906000000015,7.836530882374472,6.476023370094252,3.022194196111181,7.836530882374472,0.0,0.0,0.0,,0.0,68.56919599999998,1.1674696286138073,-1.5937322399950977,2.7275444253686545,1.1674696286138073
5.198070049285889,-11.862962999999993,5.863754508644324,4.448289051362829,3.0663040638446577,5.863754508644324,0.0,0.0,0.0,,0.0,-31.263693999999987,6.212641355039188,4.7792668160889455,0.963931860915365,6.212641355039188
5.211658954620361,-3.4930669999999964,3.1327604148688986,1.5298202428938754,2.7741752259029986,3.1327604148688986,0.0,0.0,0.0,,0.0,47.87259,15.52198308832598,14.536247874305621,3.7992212967697108,15.52198308832598
5.211658954620361,28.04550900000001,2.354930394542858,0.14125616081256043,2.4347471610434197,2.354930394542858,0.0,0.0,0.0,,0.0,41.37264299999998,17.459392678417764,16.022003746473874,7.563315059059071,17.459392678417764
5.22766900062561,36.022716,2.2802053143499132,-1.2535527279412144,2.418732526722462,2.2802053143499132,0.0,0.0,0.0,,0.0,60.82760300000001,3.988719869013579,2.2257451418421375,3.84657619766364,3.988719869013579
5.22766900062561,-18.557384,1.4744372154880827,-1.855489444832403,1.5574457293136565,1.4744372154880827,0.0,0.0,0.0,,0.0,-34.382769999999994,-12.98275439022598,-14.15294045072466,-4.700686126509165,-12.98275439022598
5.228053092956543,-1.7278340000000014,-0.37464759946202775,-0.6598849238407588,-1.0414908841571184,-0.37464759946202775,0.0,0.0,0.0,,0.0,4.280315999999971,-18.15887387099443,-17.971118994025698,-7.625554355894487,-18.15887387099443
5.228053092956543,16.597676000000007,-4.706337854446453,-1.725413356694797,-5.98940354681685,-4.706337854446453,0.0,0.0,0.0,,0.0,13.21493700000002,-18.018337789684075,-16.691292480348118,-16.833305621925064,-18.018337789684075
5.241640090942383,22.211264999999997,-12.584836248703237,-8.678583204081246,-13.449108171252625,-12.584836248703237,0.0,0.0,0.0,,0.0,1.2734360000000038,-33.68441834290862,-31.873688963789146,-45.25841954786723,-33.68441834290862
5.241640090942383,-41.49418999999999,-21.16335004457345,-16.68959809436471,-20.295762627622796,-21.16335004457345,0.0,0.0,0.0,,0.0,-72.82894199999998,-67.85792998166619,-65.36758914880996,-69.36497688249476,-67.85792998166619
5.257370948791504,-28.28112399999999,-25.421937126234575,-16.66709360006228,-23.698375336825663,-25.421937126234575,0.0,0.0,0.0,,0.0,-37.70754099999999,-86.42849359706163,-81.40887743826367,-74.81004095886011,-86.42849359706163
5.257370948791504,0.4450480000000141,-22.52394439924212,-5.721039202469733,-20.947869966703966,-22.52394439924212,0.0,0.0,0.0,,0.0,-62.951865999999995,-45.89517476367726,-35.76092184852427,-47.945848631777174,-45.89517476367726
5.258048057556152,22.30476300000001,-12.147954167913841,8.994942997741372,-10.191294644150913,-12.147954167913841,0.0,0.0,0.0,,0.0,91.74909600000001,49.900874108913776,61.68182246024783,38.91432753244301,49.900874108913776
5.258048057556152,-19.806511,4.162222620740873,16.503479668299697,3.902653596580493,4.162222620740873,0.0,0.0,0.0,,0.0,165.57098100000002,135.24871806689004,138.79513457840218,124.73396566124889,135.24871806689004
5.272243976593018,22.727372000000003,20.447844568140827,11.919976218445148,16.940244577323277,20.447844568140827,0.0,0.0,0.0,,0.0,161.67026499999997,147.7244566493389,135.10590561239212,126.58089132251877,147.7244566493389
5.272243976593018,43.23698300000001,27.347457723197714,-0.014728391763910054,24.228029632210642,27.347457723197714,0.0,0.0,0.0,,0.0,91.99592899999999,94.30220967846662,66.37671389723842,77.43858518868046,94.30220967846662
5.287358999252319,62.50494800000001,21.34182293965718,-9.004611623423266,19.27294161316491,21.34182293965718,0.0,0.0,0.0,,0.0,74.42213900000002,29.560917766363904,-5.291519783461208,30.973042028919412,29.560917766363904
5.287358999252319,-14.335037,10.34802999036681,-8.93577322103504,8.851842085564948,10.34802999036681,0.0,0.0,0.0,,0.0,11.932150999999976,-10.399674014620423,-41.01109914187133,-3.014411870030664,-10.399674014620423
5.288074970245361,-1.626857000000001,4.31735616204366,-2.3569541119832644,4.491107848746466,4.31735616204366,0.0,0.0,0.0,,0.0,-16.850119000000007,-23.91675965830676,-41.41655283529279,-16.787114850933243,-23.91675965830676
5.288074970245361,26.691665999999998,2.8980371558367186,2.7016709068261133,2.929398388101975,2.8980371558367186,0.0,0.0,0.0,,0.0,-6.430758000000026,-17.47343079319183,-18.64397988956376,-13.084811579943674,-17.47343079319183
5.30168604850769,38.206818,-0.7042328125572104,0.23870974933167877,-2.2928626076412484,-0.7042328125572104,0.0,0.0,0.0,,0.0,44.55903799999999,0.6642978302649392,13.515901808944548,0.4211459964629759,0.6642978302649392
5.30168604850769,-32.858761,-6.594853241045886,-7.407314504178648,-6.999654831779806,-6.594853241045886,0.0,0.0,0.0,,0.0,28.42885000000001,12.355555375589194,34.33534178817298,12.343631150317412,12.355555375589194
5.31738805770874,-13.272904999999994,-8.063475247338625,-12.057203145244948,-6.176106927557013,-8.063475247338625,0.0,0.0,0.0,,0.0,13.237375999999983,4.332364923407687,30.986208833716457,6.997216162132159,4.332364923407687
5.31738805770874,22.263623999999993,-3.0737605267432753,-9.070085229317296,-1.8527921302294024,-3.0737605267432753,0.0,0.0,0.0,,0.0,-9.22072300000002,-12.890529795779276,14.183247446312166,-5.88494312396382,-12.890529795779276
5.318051099777222,37.67949200000001,3.365533862281776,-0.9588873103566184,2.986984382609304,3.365533862281776,0.0,0.0,0.0,,0.0,54.76522499999999,-18.174435546299982,3.5679936638498972,-8.97312198551089,-18.174435546299982
5.318051099777222,-15.10545599999999,7.729404686686265,8.072139149665645,7.00980145446494,7.729404686686265,0.0,0.0,0.0,,0.0,-29.76773400000002,-7.636865924758257,3.1951151780102434,-6.319425383239276,-7.636865924758257
5.3318870067596436,5.654728000000006,10.626394031999194,15.658282341270525,9.418281225350517,10.626394031999194,0.0,0.0,0.0,,0.0,23.739014999999995,2.9415729606662566,1.8664771270772067,-5.545047385678166,2.9415729606662566
5.3318870067596436,34.343501,11.438515766831268,19.18313918309285,9.57730339320683,11.438515766831268,0.0,0.0,0.0,,0.0,26.319546000000003,1.9133054173004018,-5.933529814099085,-4.325006242344399,1.9133054173004018
5.3474791049957275,43.42023800000001,8.07547616939618,16.634056792691432,6.6703643189428545,8.07547616939618,0.0,0.0,0.0,,0.0,52.472666000000004,-2.9747906037126297,-9.916980342682315,0.2603579276755813,-2.9747906037126297
5.3474791049957275,-21.171573999999993,2.594028739108699,10.550736139454514,3.43717012923467,2.594028739108699,0.0,0.0,0.0,,0.0,-26.91419000000002,0.7438789508010382,0.0784808380899702,4.8502143692737105,0.7438789508010382
5.348052024841309,-0.7629399999999862,0.6461472194959217,6.086673547256477,3.5866675955986462,0.6461472194959217,0.0,0.0,0.0,,0.0,39.10252400000002,8.5172604131347,15.305699777400596,5.815711000225304,8.5172604131347
5.348052024841309,19.593334999999996,4.0878046547786395,5.102547008773023,5.778741057186212,4.0878046547786395,0.0,0.0,0.0,,0.0,38.908049000000005,5.839165273767415,18.12478744759475,4.255124788285038,5.839165273767415
5.361687898635864,52.205263,8.914604850613777,6.146536064853142,7.667179197577591,8.914604850613777,0.0,0.0,0.0,,0.0,18.405917999999986,-6.677575629467507,8.174323867562036,1.118113908189392,-6.677575629467507
5.361687898635864,-18.183393999999993,11.348343687853358,8.654347526787475,8.952367511549367,11.348343687853358,0.0,0.0,0.0,,0.0,6.801008000000024,-12.942306180978028,2.260278542879396,-2.0096025090914265,-12.942306180978028
5.393739938735962,11.672226999999992,11.564726295237648,12.135997278383034,9.518657327574346,11.564726295237648,0.0,0.0,0.0,,0.0,-20.597499000000028,-6.719019413390669,8.016647325626797,-1.7844708338221447,-6.719019413390669
5.393739938735962,29.29837600000002,10.843836060062733,13.565707833322467,9.37929875904793,10.843836060062733,0.0,0.0,0.0,,0.0,49.035698000000025,-0.7798619665461118,13.70169612348107,-1.1148385047237328,-0.7798619665461118
5.394475936889648,47.41071099999999,9.565577342594608,11.473502261598853,8.480674398106194,9.565577342594608,0.0,0.0,0.0,,0.0,32.53899999999999,-6.556972806161741,7.736777096467502,-5.138458052295768,-6.556972806161741
5.394475936889648,-16.332144,8.776568112275598,9.185841104496502,7.55098886955655,8.776568112275598,0.0,0.0,0.0,,0.0,-19.13145800000001,-17.786338987081898,-3.8854156288833295,-9.967037484230971,-17.786338987081898
5.395165920257568,6.64206200000001,9.636879465584974,10.418050259674928,7.88609708932891,9.636879465584974,0.0,0.0,0.0,,0.0,-19.04169999999999,-21.3619768302537,-7.532640520077907,-10.268514695441281,-21.3619768302537
5.395165920257568,31.437599000000006,10.697996901321824,13.20696689291037,8.320687026979293,10.697996901321824,0.0,0.0,0.0,,0.0,22.931196999999997,-14.927121537117324,-0.03968795112276702,-7.999348387853519,-14.927121537117324
5.395936012268066,45.959630000000004,9.233128858086426,12.464456139990244,7.13795101527853,9.233128858086426,0.0,0.0,0.0,,0.0,43.601624000000015,-5.731977225860773,11.272534810953239,-6.0377767084340865,-5.731977225860773
5.395936012268066,-20.20667999999999,5.502618218230326,7.636349320869873,5.479073796087607,5.502618218230326,0.0,0.0,0.0,,0.0,-7.014182000000005,0.08194505795927609,19.3022189744603,-5.714373026181292,0.08194505795927609
5.406697988510132,-0.04861900000000219,2.799871616077778,3.158014454688902,4.565751053992858,2.799871616077778,0.0,0.0,0.0,,0.0,5.480823999999984,-1.23903754022179,19.378534687719913,-7.310636986948502,-1.23903754022179
5.406697988510132,27.922093000000018,3.404662342618858,2.661901677174967,4.587344825236028,3.404662342618858,0.0,0.0,0.0,,0.0,20.900431000000026,-12.299817059710188,8.529539297685146,-10.277114132648332,-12.299817059710188
5.4216649532318115,35.39815300000001,6.493806779843831,6.291389316990556,6.029930070815113,6.493806779843831,0.0,0.0,0.0,,0.0,31.21133500000002,-27.19081882174434,-7.465480408357479,-16.260116533220856,-27.19081882174434
5.4216649532318115,-10.258545999999996,9.318624458274087,11.209900034618116,7.381220509642426,9.318624458274087,0.0,0.0,0.0,,0.0,-43.29495200000002,-30.81231379522501,-13.365888701911391,-20.481522464188295,-30.81231379522501
5.437331914901733,6.073597000000007,9.220811472752828,12.67257489574836,6.59823589379149,9.220811472752828,0.0,0.0,0.0,,0.0,-14.31446699999998,-17.216510596440344,-2.430905821484897,-13.98349000383963,-17.216510596440344
5.437331914901733,26.68418600000001,5.639625792933801,7.672620193618597,4.553942452577089,5.639625792933801,0.0,0.0,0.0,,0.0,40.557345,-1.575100411982191,11.374204302832865,-5.71931673268567,-1.575100411982191
5.438210964202881,32.993397000000016,0.9617128294312249,-0.6041010103689399,2.5268956895210635,0.9617128294312249,0.0,0.0,0.0,,0.0,56.24622599999998,-1.5866983365501894,10.993876522946646,-9.755373792376671,-1.5866983365501894
5.438210964202881,-21.88589499999999,-1.4797016686428912,-5.30683067635211,0.9880241131405122,-1.4797016686428912,0.0,0.0,0.0,,0.0,-35.59449799999999,-13.638643136535551,-0.37926426568451177,-17.986591013858607,-13.638643136535551
5.451771974563599,-4.327065000000005,-0.6686050260779474,-3.662701580437642,0.5224110117966949,-0.6686050260779474,0.0,0.0,0.0,,0.0,2.1036940000000186,-19.598084435511332,-5.897922560281502,-19.63181566774245,-19.598084435511332
5.451771974563599,21.22393200000002,1.2631456420889984,0.029730439216067106,0.6082184873861399,1.2631456420889984,0.0,0.0,0.0,,0.0,21.655890999999997,-12.155126206192202,0.5848835906602066,-18.405941725199906,-12.155126206192202
5.467083930969238,36.75573600000001,1.5971916387418854,0.3101403019971636,0.33466759689684794,1.5971916387418854,0.0,0.0,0.0,,0.0,35.94978800000001,-3.558384801045544,6.844534359285691,-16.182313433297786,-3.558384801045544
5.467083930969238,-22.39078099999999,-0.028267349926299035,-2.9082427096757586,-0.3448165605870345,-0.028267349926299035,0.0,0.0,0.0,,0.0,-1.4828699999999913,-10.581532606593855,-2.543058793528852,-17.566616646953506,-10.581532606593855
5.482795000076294,-6.339131000000009,-1.7888428925335973,-5.248757830659775,-1.310284590168345,-1.7888428925335973,0.0,0.0,0.0,,0.0,-18.791127000000017,-34.54535272299923,-27.28586629720293,-31.859438586040884,-34.54535272299923
5.482795000076294,19.832689000000016,-2.4133583731754804,-3.702140062722983,-2.556836310050012,-2.4133583731754804,0.0,0.0,0.0,,0.0,-43.429588000000024,-57.85926399464804,-49.61833344543782,-47.11703026307594,-57.85926399464804
5.48337197303772,31.059868999999992,-2.546558518392209,0.06732815166477257,-4.033360710113199,-2.546558518392209,0.0,0.0,0.0,,0.0,0.4843169999999759,-62.952991619190385,-53.81967243571468,-46.36652137842618,-62.952991619190385
5.48337197303772,-25.891328,-3.376655743853334,1.7327133034247373,-5.453468152845993,-3.376655743853334,0.0,0.0,0.0,,0.0,-54.87368200000003,-51.420109496074716,-43.39767052742541,-37.88416269422097,-51.420109496074716
5.497313022613525,-8.29883799999999,-5.231549427957253,-1.132319674543072,-6.461928332927672,-5.231549427957253,0.0,0.0,0.0,,0.0,-17.347526000000016,-38.83932655140557,-33.23523009679472,-32.60695580264205,-38.83932655140557
5.497313022613525,12.764278000000019,-7.637290820409722,-6.577319682448886,-7.11718656203082,-7.637290820409722,0.0,0.0,0.0,,0.0,-25.021800999999982,-36.023207390118976,-31.55598644413899,-31.828610371626112,-36.023207390118976
5.498054027557373,26.90858,-9.620292308876529,-10.47520947553375,-7.594137080439857,-9.620292308876529,0.0,0.0,0.0,,0.0,27.026387,-42.45813529902492,-36.83989263230019,-38.3527243970518,-42.45813529902492
5.498054027557373,-37.14468699999999,-10.109422172583821,-10.454390336842444,-7.8262171694395875,-10.109422172583821,0.0,0.0,0.0,,0.0,-50.729873,-51.801733546199834,-44.320391623312254,-45.86443215415359,-51.801733546199834
5.511689901351929,-7.434922,-9.091341400644747,-7.639283907833171,-7.750629225182212,-9.091341400644747,0.0,0.0,0.0,,0.0,-51.71346699999998,-56.467425485378456,-48.718860692018325,-44.07357774943621,-56.467425485378456
5.511689901351929,9.424547000000018,-7.961226636995604,-5.115849152307327,-7.421922918470423,-7.961226636995604,0.0,0.0,0.0,,0.0,-20.365625000000023,-52.15436535711687,-46.96805036438262,-37.26386210683361,-52.15436535711687
5.527349948883057,29.563908999999995,-7.845428845407438,-4.932160158199128,-6.880731487242322,-7.845428845407438,0.0,0.0,0.0,,0.0,12.294920999999988,-42.436725018833954,-41.731437259828255,-32.66451610389633,-42.436725018833954
5.527349948883057,-33.23275099999999,-8.316527015016021,-6.505743115025301,-6.19775747727264,-8.316527015016021,0.0,0.0,0.0,,0.0,-17.500861999999984,-33.73496022353733,-36.64146028258607,-28.63435897667274,-33.73496022353733
5.528034925460815,-13.070950999999994,-8.439345835952773,-7.954738008540858,-5.422026521818864,-8.439345835952773,0.0,0.0,0.0,,0.0,-31.04303900000002,-25.671468858294098,-29.36490894024462,-23.371516918025304,-25.671468858294098
5.528034925460815,19.469919000000004,-7.779703153734436,-8.426064209667967,-4.478378771018439,-7.779703153734436,0.0,0.0,0.0,,0.0,17.83371299999999,-14.472748517199948,-17.374217982991876,-17.59028847073815,-14.472748517199948
5.541662931442261,23.090142000000014,-5.807438509669351,-8.274349095768724,-3.3238837627801994,-5.807438509669351,0.0,0.0,0.0,,0.0,62.18892699999998,-3.935866187383902,-7.384882230625541,-10.526323034561416,-3.935866187383902
5.541662931442261,-25.648233999999988,-2.1777398801606775,-7.589998128747969,-1.8193301983149766,-2.1777398801606775,0.0,0.0,0.0,,0.0,4.538368999999989,-1.7071796241193553,-8.240700468218577,-4.060918950745589,-1.7071796241193553
5.5574328899383545,3.5304649999999924,1.9677313773773217,-5.830938985688957,0.2058566020360465,1.9677313773773217,0.0,0.0,0.0,,0.0,-8.139891999999975,-5.502910062055872,-16.37184971756312,-2.2084891732435517,-5.502910062055872
5.5574328899383545,24.63846000000001,4.96906355194043,-2.814090321067579,2.5032260837857905,4.96906355194043,0.0,0.0,0.0,,0.0,35.45612199999999,-4.0184116768262195,-18.94331773471364,-0.9070472372231886,-4.0184116768262195
5.55807900428772,38.45365100000001,6.742734871911769,0.49420058900242836,4.715301735043746,6.742734871911769,0.0,0.0,0.0,,0.0,71.811689,8.148660121447913,-10.363197159933192,6.490484813722465,8.148660121447913
5.55807900428772,-12.891435999999999,8.215465179662615,2.4092764707314025,6.750097887199162,8.215465179662615,0.0,0.0,0.0,,0.0,23.443562999999983,24.210047101790078,1.9910778815935792,15.674346544070346,24.210047101790078
5.571666955947876,8.646647999999999,9.695541170278704,2.185685009401423,8.454890672910436,9.695541170278704,0.0,0.0,0.0,,0.0,43.06681800000001,33.53092932542682,7.217546916083329,19.976933456622707,33.53092932542682
5.571666955947876,30.248310000000004,11.10130999747402,1.054937387108568,9.69699045941245,11.10130999747402,0.0,0.0,0.0,,0.0,64.563763,32.03687123454516,1.879858036399252,21.701797941492188,32.03687123454516
5.587423086166382,46.647772,12.255761656327545,0.7519984105604554,10.49267066831362,12.255761656327545,0.0,0.0,0.0,,0.0,99.85719899999998,25.684437423071266,-6.743569128822102,24.494248322168577,25.684437423071266
5.587423086166382,-11.358076999999994,12.188379685839386,1.1631143487543962,10.412855264835079,12.188379685839386,0.0,0.0,0.0,,0.0,13.31217399999997,24.7097183438758,-7.442266035610942,27.352883317524874,24.7097183438758
5.588081121444702,10.62131500000001,9.95736080993596,0.5968567013012507,9.106654241243135,9.95736080993596,0.0,0.0,0.0,,0.0,45.17238199999997,31.949879128043303,2.4146079126624933,28.976064746486,31.949879128043303
5.588081121444702,25.259284000000008,6.455431155477242,-1.6524875015047167,6.962646135067015,6.455431155477242,0.0,0.0,0.0,,0.0,77.12234699999999,38.85275003123086,13.331036923013158,29.729358525808394,38.85275003123086
5.601633071899414,35.88808,3.543638902314635,-4.2796010799717,4.431511140496975,3.543638902314635,0.0,0.0,0.0,,0.0,109.92126999999999,37.259613184844994,16.490179427669652,29.975246242738777,37.259613184844994
5.601633071899414,-17.794444,1.7201586866621632,-5.552744877632796,2.3470562413830223,1.7201586866621632,0.0,0.0,0.0,,0.0,16.64068500000002,30.636030164162495,15.188022246592158,29.64923789059176,30.636030164162495
5.617342948913574,-1.8325509999999952,0.6511814764649873,-4.790706843299997,1.455446119678988,0.6511814764649873,0.0,0.0,0.0,,0.0,46.35419000000002,27.25147012251691,17.519579143694617,28.733486697270465,27.25147012251691
5.617342948913574,19.582116000000013,0.9632139106469357,-2.352593487716787,1.523255770957188,0.9632139106469357,0.0,0.0,0.0,,0.0,65.48377799999997,27.570530741381322,23.72094938058467,27.31167221482678,27.570530741381322
5.6180739402771,38.70422400000001,2.9426848276577093,0.6409711320098861,2.3461573317768964,2.9426848276577093,0.0,0.0,0.0,,0.0,90.776722,26.484847436113885,28.56026590374562,25.45868020594517,26.484847436113885
5.6180739402771,-19.043571,4.515707978413541,2.479796000613275,2.992842485056995,4.515707978413541,0.0,0.0,0.0,,0.0,27.344278999999972,23.944788303760333,31.50318351552047,23.31524177626917,23.944788303760333
5.63170599937439,3.2350130000000092,3.2903347463921686,2.021881156230253,2.186020099864879,3.2903347463921686,0.0,0.0,0.0,,0.0,35.41498300000001,24.347792072716008,35.821515093157906,21.025287388285776,24.347792072716008
5.63170599937439,17.139961,0.19235919712427785,0.20826370259750993,0.8497028459257443,0.19235919712427785,0.0,0.0,0.0,,0.0,56.56411700000001,26.326945888982383,39.533008459329224,18.637684340769614,26.326945888982383
5.64739203453064,38.801462000000015,-1.1551868698111893,-0.3266410392859773,0.34461153029666086,-1.1551868698111893,0.0,0.0,0.0,,0.0,100.03671400000002,22.613726575337413,36.58148601745082,16.201262062927317,22.613726575337413
5.64739203453064,-28.40827999999999,1.0622277758838041,2.114503479760958,0.5908071478966321,1.0622277758838041,0.0,0.0,0.0,,0.0,20.144970999999998,13.082954768508772,28.495952823258648,13.705552335312941,13.082954768508772
5.648036956787109,6.514904999999999,4.4673215838516365,6.035537140205143,1.293001778471562,4.4673215838516365,0.0,0.0,0.0,,0.0,3.3715199999999754,7.912261144578991,24.733540393115106,11.137197007775685,7.912261144578991
5.648036956787109,26.048403000000008,5.534826638556931,7.974700884847978,2.0684549046799305,5.534826638556931,0.0,0.0,0.0,,0.0,53.164548000000025,11.346014331362671,27.268176264756846,8.636564495417527,11.346014331362671
5.661570072174072,39.033334999999994,3.9695298644364407,6.568630971501765,2.405955726948011,3.9695298644364407,0.0,0.0,0.0,,0.0,94.69987700000001,13.701235765412836,26.28977714528869,6.364347072569422,13.701235765412836
5.661570072174072,-24.668380999999997,2.285325522243638,4.18369102803919,1.8965389770531416,2.285325522243638,0.0,0.0,0.0,,0.0,6.120345999999984,8.497884665373176,17.753767655826067,4.498270421777757,8.497884665373176
5.677480936050415,4.196167000000003,1.614919317043551,3.2575721698024265,0.3036407600528543,1.614919317043551,0.0,0.0,0.0,,0.0,9.841546999999991,4.496366798388826,11.689468399613133,3.1575578695031017,4.496366798388826
5.677480936050415,17.988918000000012,0.28172632131648045,2.4435895578185116,-2.2148123109544606,0.28172632131648045,0.0,0.0,0.0,,0.0,49.73131999999998,9.338217170601409,14.262956525348116,2.3294094589878327,9.338217170601409
5.678157091140747,34.01065,-3.359064459145382,-1.3161779388892554,-5.319140719052451,-3.359064459145382,0.0,0.0,0.0,,0.0,83.81302799999997,14.663368322874788,16.306104547523823,2.0599717630546497,14.663368322874788
5.678157091140747,-34.968064999999996,-8.568496384916532,-7.652353575985668,-8.322034734845799,-8.568496384916532,0.0,0.0,0.0,,0.0,37.632743000000005,10.638674851155438,10.19864336115278,2.09522570873301,10.638674851155438
5.691847085952759,-12.622163,-13.035259839124318,-12.472086285955028,-10.574265423261615,-13.035259839124318,0.0,0.0,0.0,,0.0,-28.585924999999975,2.8354985459655517,4.297296787974096,1.951113951611202,2.8354985459655517
5.691847085952759,4.514059000000003,-14.962863829515484,-13.008887124609487,-11.763707683703903,-14.962863829515484,0.0,0.0,0.0,,0.0,71.40030000000002,1.6889468330501176,8.955655671878283,1.9203607370977567,1.6889468330501176
5.707546949386597,21.19027300000002,-14.249459255607428,-10.719136884263218,-11.589258376991895,-14.249459255607428,0.0,0.0,0.0,,0.0,77.26446299999998,6.716448214921809,20.567595099604222,2.5588727033210272,6.716448214921809
5.707546949386597,-36.366788,-12.128514884826014,-8.32972889302064,-10.558138048251363,-12.128514884826014,0.0,0.0,0.0,,0.0,3.1733049999999707,11.762503310610075,29.533689728330007,3.3596386253343224,11.762503310610075
5.7081379890441895,-10.262285999999989,-9.755472678749637,-6.576552781085859,-9.579789199224313,-9.755472678749637,0.0,0.0,0.0,,0.0,28.806579999999997,14.683044069225744,32.441564435193115,3.536507171328309,14.683044069225744
5.7081379890441895,11.077583000000004,-7.415806686826386,-5.029931504354352,-8.474439206520433,-7.415806686826386,0.0,0.0,0.0,,0.0,64.46652599999999,14.365382891558927,29.447508247863556,3.2953938068178417,14.365382891558927
5.72186803817749,31.504917000000006,-5.3115467152328,-3.805904782202722,-6.758089538616839,-5.3115467152328,0.0,0.0,0.0,,0.0,69.40319399999998,8.078683251948618,20.263717492858824,3.0749964033169213,8.078683251948618
5.72186803817749,-28.662594,-4.181036935427883,-3.059862119992158,-4.9539255413905705,-4.181036935427883,0.0,0.0,0.0,,0.0,3.9811240000000225,-2.99444101265303,7.733471051673727,2.5198128037305083,-2.99444101265303
5.737555980682373,-6.245632999999998,-4.26365515399371,-2.2348250998134107,-3.7496997042166877,-4.26365515399371,0.0,0.0,0.0,,0.0,2.8254949999999894,-12.166566837271915,-1.5363091870591106,1.4435425927991372,-12.166566837271915
5.737555980682373,16.13766800000002,-4.447898710167609,-0.74313265216401,-2.9200890306604332,-4.447898710167609,0.0,0.0,0.0,,0.0,22.250535000000013,-14.49860612813205,-3.723473565982582,0.20548518802051197,-14.49860612813205
5.738073110580444,32.077121000000005,-3.484528852931057,1.2211092215548667,-1.979555677731836,-3.484528852931057,0.0,0.0,0.0,,0.0,57.31583699999999,-11.640344606001566,-1.2458441628172103,-1.024437439545298,-11.640344606001566
5.738073110580444,-26.366294999999994,-1.574998993331504,2.9366798447199205,-1.015418788610666,-1.574998993331504,0.0,0.0,0.0,,0.0,13.398191999999995,-6.982871253748571,2.4910561323554363,-1.0910383968566122,-6.982871253748571
5.751718997955322,-1.2491269999999872,0.08428491309544424,3.8794684729467983,-0.5086125704660586,0.08428491309544424,0.0,0.0,0.0,,0.0,-14.280807999999979,-0.5021210595864403,7.447816930740097,1.0997467396174352,-0.5021210595864403
5.751718997955322,20.924740000000014,0.9354158971128594,3.860481719993392,-0.16911156822997608,0.9354158971128594,0.0,0.0,0.0,,0.0,71.609735,7.4446578775144445,12.655513770887097,4.643155137824515,7.4446578775144445
5.767421007156372,38.124539999999996,1.2587598611880115,2.8224677852391853,0.9698217482172213,1.2587598611880115,0.0,0.0,0.0,,0.0,71.32176199999998,12.598816721766266,13.507794142290468,8.471769337015152,12.598816721766266
5.767421007156372,-26.022223999999994,0.8619421939592599,0.8563942471220088,1.7417463469901817,0.8619421939592599,0.0,0.0,0.0,,0.0,24.531874000000016,12.736269145401346,8.529421986020186,11.00821260002199,12.736269145401346
5.768440008163452,-2.4645940000000053,-0.9688266750208285,-1.6285370890057542,0.27089822541332154,-0.9688266750208285,0.0,0.0,0.0,,0.0,19.569027000000006,11.383408238944934,2.671098025026085,10.616462777152574,11.383408238944934
5.768440008163452,20.565709,-3.350968025621322,-3.45276684780605,-1.472458788238188,-3.350968025621322,0.0,0.0,0.0,,0.0,45.897921999999994,10.502664403504278,-0.785791177967825,8.132758317116577,10.502664403504278
5.781708002090454,28.606493999999998,-3.2474524073651647,-2.591189018937469,-1.1048123331205721,-3.2474524073651647,0.0,0.0,0.0,,0.0,94.83451300000002,6.916590175319297,-4.175489419845067,4.828205180959835,6.916590175319297
5.781708002090454,-24.301869999999994,0.9375832837454845,1.8451657704551265,0.6289453300396761,0.9375832837454845,0.0,0.0,0.0,,0.0,-7.2086570000000165,1.1003489432821865,-7.417222061145624,1.8213804062561123,1.1003489432821865
5.797416925430298,7.191827000000018,6.297402553058591,7.160218019641546,3.101963167747703,6.297402553058591,0.0,0.0,0.0,,0.0,14.033974999999998,0.04913128884912599,-5.755514600171921,0.4517041024196895,0.04913128884912599
5.797416925430298,27.024517000000003,8.29533693001255,8.682362564012402,4.886515468139025,8.29533693001255,0.0,0.0,0.0,,0.0,45.45287400000001,5.085215188470075,-0.2789178534871226,0.1024454776397393,5.085215188470075
5.7981650829315186,42.249649000000005,6.05940181718474,5.064077853233289,3.6692832606463446,6.05940181718474,0.0,0.0,0.0,,0.0,86.16916500000002,7.092762785389564,0.10936334229009148,-0.23042918722244,7.092762785389564
5.7981650829315186,-22.18882699999999,2.890992828601691,0.45632911692445166,1.2907174511225936,2.890992828601691,0.0,0.0,0.0,,0.0,-1.16871900000001,1.1480907607260036,-6.950756956094389,-0.4689558248420364,1.1480907607260036
5.81173300743103,-0.9200160000000039,1.8563143891910199,-0.35250348662513153,0.8158461632194437,1.8563143891910199,0.0,0.0,0.0,,0.0,9.654552000000024,-4.34385431497758,-11.486726397706704,-1.300019781779538,-4.34385431497758
5.81173300743103,22.880708,2.3514496637216538,1.9902882233837111,1.1771633503447159,2.3514496637216538,0.0,0.0,0.0,,0.0,34.7792,-1.1281272568354155,-6.600579919138805,-2.2886324709933517,-1.1281272568354155
5.827331066131592,36.830534,1.684966844630468,2.782571239648629,0.5828432117518199,1.684966844630468,0.0,0.0,0.0,,0.0,89.92776500000002,5.218857497458226,0.2727783808554296,-1.2065025585383102,5.218857497458226
5.827331066131592,-21.066857,-0.46885363034916827,0.7002119823986596,-0.2843498613644147,-0.46885363034916827,0.0,0.0,0.0,,0.0,-6.412058000000002,3.3625240106481957,-1.6165956953611698,-0.867359656763834,3.3625240106481957
5.828134059906006,-9.47316699999999,-1.3786354798689204,-0.33136963868018743,-0.5252374363569564,-1.3786354798689204,0.0,0.0,0.0,,0.0,1.7297039999999697,-7.654539881559989,-11.072714618284916,-5.984936475896525,-7.654539881559989
5.828134059906006,17.936560000000014,-0.1242524742434079,1.8160837058146533,-0.3837186881978387,-0.1242524742434079,0.0,0.0,0.0,,0.0,56.545417999999984,-16.982032789613587,-17.071342225731883,-11.620575507390168,-16.982032789613587
5.841659069061279,46.04938799999999,0.3166904856324875,3.655557985644079,-0.17915640998812105,0.3166904856324875,0.0,0.0,0.0,,0.0,3.2668029999999817,-15.206340529570548,-12.959254756754897,-11.369810995208326,-15.206340529570548
5.841659069061279,-32.49599099999999,-1.4794626598826417,2.3782311637724947,0.1559247979184166,-1.4794626598826417,0.0,0.0,0.0,,0.0,37.25501400000002,-5.004213146006862,-3.5241185505778976,-7.523071926824266,-5.004213146006862
5.857521057128906,-8.272659000000004,-2.156206899440972,0.734172035192254,0.6443303180856348,-2.156206899440972,0.0,0.0,0.0,,0.0,8.053875000000005,3.4251772886978884,2.6162754399684487,-3.0778834876348857,3.4251772886978884
5.857521057128906,25.139607000000012,0.6585156403852581,1.7795952206526637,1.208197176322528,0.6585156403852581,0.0,0.0,0.0,,0.0,35.37758400000001,3.9863882590652038,2.204004936568916,-0.4084033464650895,3.9863882590652038
5.858086109161377,40.37222,3.925953545317256,3.745846230378413,1.8066434196244707,3.925953545317256,0.0,0.0,0.0,,0.0,72.63072699999998,-3.0748360868447353,-4.184375142663038,-2.0725566668704345,-3.0748360868447353
5.858086109161377,-22.67501399999999,4.181964462655624,3.9581796850008635,2.242401381551224,4.181964462655624,0.0,0.0,0.0,,0.0,-13.491689000000008,-15.073054917057684,-15.122903473378775,-5.847882702805339,-15.073054917057684
5.871793985366821,0.0972370000000069,2.665310948347672,3.59826669408179,2.3333795052468744,2.665310948347672,0.0,0.0,0.0,,0.0,-15.55611399999998,-25.29343767774609,-24.038278609952346,-9.48781793041593,-25.29343767774609
5.871793985366821,18.916414000000003,2.013053628632038,4.530315187716997,2.1543524215923684,2.013053628632038,0.0,0.0,0.0,,0.0,29.91359,-23.400386898280306,-20.26335339986977,-10.835681430925268,-23.400386898280306
5.887459993362427,43.008849,1.6857985592468079,4.842784599558747,1.8310337781162243,1.6857985592468079,0.0,0.0,0.0,,0.0,40.44514800000002,-7.246101409007927,-3.1188748673084064,-6.155772856827519,-7.246101409007927
5.887459993362427,-26.212958999999998,0.333037686252624,2.1356936090640573,1.62837934098433,0.333037686252624,0.0,0.0,0.0,,0.0,17.45224300000001,9.057002142058666,11.874123307555516,-0.04627849923233216,9.057002142058666
5.888060092926025,-8.545671999999996,-0.469848894277002,-1.3300712017295844,1.6826381408353568,-0.469848894277002,0.0,0.0,0.0,,0.0,31.34971200000001,9.432879387827917,10.050487961116719,-0.008230960291727792,9.432879387827917
5.888060092926025,25.726771000000014,1.270299969067813,-1.429958296477784,1.93829771321424,1.270299969067813,0.0,0.0,0.0,,0.0,37.23631399999999,-2.250435348392651,-2.397015400663181,-2.579292476755923,-2.250435348392651
5.901834964752197,40.04310800000002,4.0017182952412105,1.5968120650855298,2.6944125331139808,4.0017182952412105,0.0,0.0,0.0,,0.0,44.727333999999985,-6.790377382027058,-6.2345801503672424,-2.490632427648004,-6.790377382027058
5.901834964752197,-23.280878,4.603830607945792,3.431439933930425,3.330075993364606,4.603830607945792,0.0,0.0,0.0,,0.0,11.632958999999971,1.3026220251307419,1.6593638386675766,-2.238193544534937,1.3026220251307419
5.917364120483398,0.08227700000000482,2.8716765185488997,1.8581362293431036,2.462449711411705,2.8716765185488997,0.0,0.0,0.0,,0.0,4.81886099999997,4.64463651862276,3.2122816594351633,-2.6253278990433078,4.64463651862276
5.917364120483398,22.308503,1.5884012012423907,-0.135421049289002,1.4267078391262713,1.5884012012423907,0.0,0.0,0.0,,0.0,70.55508300000002,-8.651159274396289,-11.28913761241416,-3.664004032949848,-8.651159274396289
5.918198108673096,38.966016999999994,2.87423435856268,1.5741325507546782,2.518215057093191,2.87423435856268,0.0,0.0,0.0,,0.0,-7.94541700000002,-22.876851724882467,-24.756779107697447,-10.496386270569758,-22.876851724882467
5.918198108673096,-21.515644999999992,5.736620945741848,6.217421949173935,4.017932827748479,5.736620945741848,0.0,0.0,0.0,,0.0,1.9353980000000206,-15.94477886981316,-16.751513588483718,-14.342785606232114,-15.94477886981316
5.931795120239258,2.4047549999999944,7.027113858187091,8.122951115898811,3.3899266408549087,7.027113858187091,0.0,0.0,0.0,,0.0,29.468542000000014,8.551137802875902,7.573167219257987,0.3706500486600316,8.551137802875902
5.931795120239258,28.36340100000001,4.775486285437578,3.695747351284514,1.7249580339911577,4.775486285437578,0.0,0.0,0.0,,0.0,59.70563299999998,26.64755600061094,25.070422000003397,17.533816442019628,26.64755600061094
5.947442054748535,35.495390000000015,0.725034214020212,-3.3619586879301924,0.6271897594007887,0.725034214020212,0.0,0.0,0.0,,0.0,82.02909599999998,23.98402101916373,22.740016100949433,14.445833914038525,23.98402101916373
5.947442054748535,-30.596121999999994,-1.3945002529259085,-6.464499264188872,0.04699354586690525,-1.3945002529259085,0.0,0.0,0.0,,0.0,10.095860000000016,7.338014661669155,7.514807772921523,1.380353083121219,7.338014661669155
5.948184013366699,-3.982993999999991,-0.4302316126783338,-3.8345456191751794,-0.10065741107000505,-0.4302316126783338,0.0,0.0,0.0,,0.0,-0.6152129999999829,-8.38094903624505,-6.696192440878085,-7.473962193757316,-8.38094903624505
5.948184013366699,26.968418000000014,1.0904937855462404,0.4886669974778388,0.1360428049295988,1.0904937855462404,0.0,0.0,0.0,,0.0,26.312066000000016,-13.875079249782331,-11.72169810734572,-9.98024141354814,-13.875079249782331
5.961744070053101,29.459192,0.9628211072697366,2.513923811784863,0.49741288972227604,0.9628211072697366,0.0,0.0,0.0,,0.0,56.807210999999995,-7.6545385683427565,-6.159554882001059,-3.845002407815919,-7.6545385683427565
5.961744070053101,-21.437106999999997,0.18902122867802465,2.1111051995798804,1.081038890015156,0.18902122867802465,0.0,0.0,0.0,,0.0,-2.6721580000000245,6.399180776335556,7.153820168367589,5.290604614134416,6.399180776335556
5.977473974227905,-7.965986999999984,0.8547632900103336,1.268381089739968,1.8884319959919758,0.8547632900103336,0.0,0.0,0.0,,0.0,23.563240000000008,18.986262605437318,20.045952868558885,10.167159254667133,18.986262605437318
5.977473974227905,28.180146000000008,2.9916509322059315,1.1226615829134508,2.6693808791737417,2.9916509322059315,0.0,0.0,0.0,,0.0,70.84305499999999,18.87088677279118,21.064999900923922,9.819777425225723,18.87088677279118
5.978132009506226,38.457391,4.686235531397245,1.5191335968091098,3.3227429186516697,4.686235531397245,0.0,0.0,0.0,,0.0,57.65616799999998,4.87461326417007,7.531604163409117,2.8533664911713608,4.87461326417007
5.978132009506226,-25.502377999999993,4.134932435865839,1.8022019782294905,3.0757733301710988,4.134932435865839,0.0,0.0,0.0,,0.0,-19.557807000000025,-8.547812987695668,-7.1048599500411145,-4.0958172401137825,-8.547812987695668
5.991693019866943,-0.6432629999999904,0.8950321770754515,0.930429448809046,1.2286856379795812,0.8950321770754515,0.0,0.0,0.0,,0.0,7.8481800000000135,-6.122041135611829,-6.787542662883837,-2.2192395996029193,-6.122041135611829
5.991693019866943,17.846801999999997,-3.8862235413876793,-1.9349176922763496,-1.633509530648947,-3.8862235413876793,0.0,0.0,0.0,,0.0,44.00179300000002,10.033189126880416,8.245271515526817,4.676888100378654,10.033189126880416
6.007612943649292,23.744624000000016,-8.054697084354,-6.0427961046995815,-4.827752093917003,-8.054697084354,0.0,0.0,0.0,,0.0,85.94103100000001,24.1147368941321,23.569455264638194,11.411288933791266,24.1147368941321
6.007612943649292,-36.722077999999996,-9.971707535837947,-9.344571163606375,-7.210952030437057,-9.971707535837947,0.0,0.0,0.0,,0.0,20.53392100000002,25.029297146588117,27.717103060001264,14.668188713327543,25.029297146588117
6.008168935775757,-10.84196999999999,-9.499125280578777,-10.37433186305827,-7.634658690791576,-9.499125280578777,0.0,0.0,0.0,,0.0,-2.8479340000000093,13.652143846569754,19.44770979050464,10.606122669505517,13.652143846569754
6.008168935775757,10.381962000000016,-7.559297285970646,-9.080136519330257,-6.632865754492576,-7.559297285970646,0.0,0.0,0.0,,0.0,68.91700700000001,-2.8988757747044547,4.177209383081501,3.274656881537063,-2.8988757747044547
6.038180112838745,28.097868000000005,-5.597089859988648,-6.409348528669154,-5.025753681587961,-5.597089859988648,0.0,0.0,0.0,,0.0,19.456830000000025,-14.780217177858827,-7.849983955617994,-2.2267670147560814,-14.780217177858827
6.038180112838745,-28.857067999999998,-4.977572324560192,-3.9126642859106227,-3.798787857954907,-4.977572324560192,0.0,0.0,0.0,,0.0,-26.039053000000024,-13.231627381824453,-6.295323982419751,-4.115009653943516,-13.231627381824453
6.038875102996826,-12.04995799999999,-5.767559311480135,-2.9142711810075963,-3.9720425172343985,-5.767559311480135,0.0,0.0,0.0,,0.0,11.184170999999992,-0.6136339766516492,7.102437208164641,0.08905965837860018,-0.6136339766516492
6.038875102996826,10.999044999999995,-6.91914440209171,-3.83972690349485,-5.121675499186018,-6.91914440209171,0.0,0.0,0.0,,0.0,52.790557999999976,9.459348760244271,17.58961054336323,5.86022047576788,9.459348760244271
6.039530038833618,31.628333999999995,-8.018274177478906,-6.105981287544397,-6.552004826431199,-8.018274177478906,0.0,0.0,0.0,,0.0,51.062724,8.53295415399896,15.427370039339895,6.065440020701654,8.53295415399896
6.039530038833618,-40.521816,-9.182991450609991,-8.253064050988593,-7.464351337123386,-9.182991450609991,0.0,0.0,0.0,,0.0,-12.792327999999998,2.202795945815891,6.677033003938453,2.6667732040040213,2.202795945815891
6.0523810386657715,-13.557137999999995,-9.421363880418225,-8.547044722124594,-7.059232310532137,-9.421363880418225,0.0,0.0,0.0,,0.0,15.675791000000004,-0.9335778628895824,2.0231768679278828,-0.12318131571055568,-0.9335778628895824
6.0523810386657715,14.731466000000012,-7.354904382814602,-6.159055031632104,-5.743360131615604,-7.354904382814602,0.0,0.0,0.0,,0.0,26.787034000000006,-0.6981844317571693,3.1388271806825525,-3.335583637565376,-0.6981844317571693
6.053131103515625,28.90194600000001,-3.642709712115088,-2.0889473703310477,-4.129044967252913,-3.642709712115088,0.0,0.0,0.0,,0.0,44.81522100000001,-2.7058987328491915,3.6234139180355642,-7.5659189349292495,-2.7058987328491915
6.0667009353637695,-28.135267999999996,-0.9784385057285498,1.1841844222861835,-3.042587662994501,-0.9784385057285498,0.0,0.0,0.0,,0.0,-21.852235000000007,-9.519272394196031,-1.2687635286051506,-9.951049690202767,-9.519272394196031
6.0667009353637695,-6.312951999999996,-1.4142544546132636,1.5109282882383757,-3.267931953227051,-1.4142544546132636,0.0,0.0,0.0,,0.0,-2.2065410000000156,-15.852385982896381,-7.632203174673519,-10.409384920635471,-15.852385982896381
6.08251690864563,16.952966000000004,-4.480352621510728,-1.1651936096315785,-4.392355047453502,-4.480352621510728,0.0,0.0,0.0,,0.0,5.587410999999975,-12.127787885351092,-5.624834478943686,-6.2165789665245,-12.127787885351092
6.08251690864563,24.215852000000012,-7.873543048001768,-5.055984256026635,-5.79180838274094,-7.873543048001768,0.0,0.0,0.0,,0.0,55.432796999999994,4.725034015393964,8.827001383718112,8.076167316231878,4.725034015393964
6.08306097984314,-35.226118,-9.217402772111027,-8.070778017950886,-6.431310873747368,-9.217402772111027,0.0,0.0,0.0,,0.0,20.633028000000024,24.042029713076765,25.7469272810052,20.48100741252322,24.042029713076765
6.08306097984314,-14.050804999999997,-7.276439634381492,-8.638661871180602,-5.466303609004872,-7.276439634381492,0.0,0.0,0.0,,0.0,11.780685000000005,28.176205687297976,27.918808433438976,17.204685476105805,28.176205687297976
6.096715927124023,19.705532000000005,-2.735601201946785,-6.069289308975449,-3.2611786650593118,-2.735601201946785,0.0,0.0,0.0,,0.0,52.05940800000002,8.792196009512692,7.658570220544421,4.262011643970355,8.792196009512692
6.096715927124023,32.989656999999994,1.7643332920895038,-1.365899842821256,-0.009143936943149193,1.7643332920895038,0.0,0.0,0.0,,0.0,27.899653999999998,-22.08116730758703,-22.465884902951323,-11.94586094416315,-22.08116730758703
6.11243200302124,-21.280030999999994,3.485100139351848,2.778365741181071,2.622229228571673,3.485100139351848,0.0,0.0,0.0,,0.0,-79.85808400000002,-38.97977803826015,-37.47307782391812,-21.356268685852736,-38.97977803826015
6.11243200302124,-6.802877999999993,2.0754738725841073,4.2778221431070245,2.5263557387873536,2.0754738725841073,0.0,0.0,0.0,,0.0,6.137176000000011,-25.848652919786197,-22.773243936318373,-11.395564255840592,-25.848652919786197
6.1130969524383545,22.517937000000018,-0.2828897946164127,2.972640670384975,1.3721554941808023,-0.2828897946164127,0.0,0.0,0.0,,0.0,8.676567999999975,7.07004426682127,9.9287299061748,6.7888278937637745,7.07004426682127
6.1130969524383545,33.475843999999995,-0.9416146801402501,0.7407870517614561,1.229398481369228,-0.9416146801402501,0.0,0.0,0.0,,0.0,84.671335,32.15563721841146,32.37112882302899,19.475208894104092,32.15563721841146
6.127013921737671,-30.48018499999999,1.5120157640317666,0.4740153365062436,2.523007370341121,1.5120157640317666,0.0,0.0,0.0,,0.0,24.80301700000001,31.38011428858954,27.466082531957845,24.104098894167997,31.38011428858954
6.127013921737671,5.146102000000013,6.60408081554135,3.818004069020179,5.839046641230686,6.60408081554135,0.0,0.0,0.0,,0.0,-10.800831000000017,13.186119284119906,5.999638122728702,14.726750404167044,13.186119284119906
6.1423609256744385,29.28715600000001,11.956204823257963,9.145535415968542,9.427379981820907,11.956204823257963,0.0,0.0,0.0,,0.0,50.66816499999999,1.2032515110587005,-6.489720384334383,3.207362998774639,1.2032515110587005
6.1423609256744385,51.42362400000002,14.649522936504102,12.648063383092593,10.841043264821844,14.649522936504102,0.0,0.0,0.0,,0.0,25.304163000000017,7.531052236633001,1.4125854150712458,9.975215891892852,7.531052236633001
6.143134117126465,-18.179654,13.664472972507514,12.134441296861581,10.563534361965958,13.664472972507514,0.0,0.0,0.0,,0.0,12.835336999999981,21.417795237608896,16.303236017803048,22.33768517177788,21.417795237608896
6.143134117126465,6.107256000000007,10.8084643141078,9.300613517097588,9.601268464181521,10.8084643141078,0.0,0.0,0.0,,0.0,29.87432100000001,25.77983376228069,19.10111159431539,20.147295230280168,25.77983376228069
6.156675100326538,31.710611,8.819399792260858,7.646053379782575,8.430625740427757,8.819399792260858,0.0,0.0,0.0,,0.0,34.39211999999998,18.692549418215698,8.56504501222419,11.52532424467657,18.692549418215698
6.156675100326538,38.91739900000002,8.701691631557782,8.389910019739833,7.574508972082827,8.701691631557782,0.0,0.0,0.0,,0.0,40.675152000000026,11.58377028111816,-1.8469085703690844,7.899709455033514,11.58377028111816
6.172452926635742,-19.432520999999994,9.061149640907207,9.261561573086752,7.027012568197844,9.061149640907207,0.0,0.0,0.0,,0.0,2.6104500000000144,11.362733964776309,-3.8170261415569566,7.529058115468347,11.362733964776309
6.172452926635742,3.7772989999999993,8.004381326350071,7.67409561751573,6.817219961487561,8.004381326350071,0.0,0.0,0.0,,0.0,13.486079000000018,14.891808905448523,0.25620859013525177,8.22993567892269,14.891808905448523
6.173163890838623,25.883847000000003,5.506616482144694,4.276898874160995,6.428526219356371,5.506616482144694,0.0,0.0,0.0,,0.0,28.191366000000016,16.596749988018964,5.0920621291576715,7.484703189183313,16.596749988018964
6.173163890838623,35.573927999999995,3.3885667178638634,2.0427802757898004,4.7441836908998,3.3885667178638634,0.0,0.0,0.0,,0.0,37.163386,10.789739179424162,4.1775563458077825,4.0717713994814435,10.789739179424162
6.186701059341431,-26.639308,2.8201167855423797,2.569108117746138,2.549757604570414,2.8201167855423797,0.0,0.0,0.0,,0.0,-5.572451000000001,-6.01974594550471,-8.011775250694853,-0.481545388775274,-6.01974594550471
6.186701059341431,-3.2948519999999917,2.6047528811541474,4.732216642577696,1.1526179006128079,2.6047528811541474,0.0,0.0,0.0,,0.0,-35.80206199999998,-24.213660977120785,-23.63314470049072,-12.537185333179528,-24.213660977120785
6.202384948730469,24.174712999999997,0.418933244338625,5.902939004446358,-0.8500462503821097,0.418933244338625,0.0,0.0,0.0,,0.0,-26.059622999999988,-24.79334677742786,-23.90332423472814,-24.587445919087926,-24.79334677742786
6.202384948730469,23.082662,-4.766357392450924,3.289806614729324,-4.706871506414272,-4.766357392450924,0.0,0.0,0.0,,0.0,46.48695700000002,-8.034666929309772,-7.824763214029711,-10.630706644432733,-8.034666929309772
6.203054904937744,-36.744517,-11.936254644287153,-4.061509894189108,-10.19228594976793,-11.936254644287153,0.0,0.0,0.0,,0.0,-41.97663699999998,-4.755502248801132,-4.004870134311432,0.7032468020249271,-4.755502248801132
6.203054904937744,-29.833181999999994,-19.114948600309752,-13.010174412089295,-16.5146008088227,-19.114948600309752,0.0,0.0,0.0,,0.0,-44.71424400000001,-38.12178307396484,-33.05969918935178,-39.474264575929475,-38.12178307396484
6.216811895370483,1.0396920000000023,-24.075014273191996,-17.657362018335768,-20.579520139203506,-24.075014273191996,0.0,0.0,0.0,,0.0,-39.545702000000006,-79.01171881831414,-64.74277218527249,-76.79902649747812,-79.01171881831414
6.216811895370483,7.4835390000000075,-23.747670745985758,-13.34427083083293,-20.539391990770294,-23.747670745985758,0.0,0.0,0.0,,0.0,-56.199477,-65.32878367005532,-39.48522740774577,-50.342335938664235,-65.32878367005532
6.232331037521362,-45.14433299999999,-14.944832071833908,-0.4709632209322976,-14.431011976435371,-14.944832071833908,0.0,0.0,0.0,,0.0,-31.280523000000017,21.28702201544261,54.49081174461568,20.788030825577646,21.28702201544261
6.232331037521362,-6.372790000000009,1.6485857230345928,13.787735785502914,0.535967017319205,1.6485857230345928,0.0,0.0,0.0,,0.0,157.27027299999997,119.76384288577304,149.55350345025866,98.56589083080577,119.76384288577304
6.23310399055481,42.91909100000001,18.91616199626039,21.141532303155586,16.876795071409628,18.91616199626039,0.0,0.0,0.0,,0.0,167.457761,153.50249612624208,169.02110277828055,139.41111826163825,153.50249612624208
6.23310399055481,60.212389,28.231441172044786,18.57143039405407,24.74280372025567,28.231441172044786,0.0,0.0,0.0,,0.0,101.94967300000002,111.37941212967078,109.22743911240457,102.25513250312795,111.37941212967078
6.246841907501221,-2.8610239999999862,27.484038932622752,10.044210345182407,25.23030975591626,27.484038932622752,0.0,0.0,0.0,,0.0,34.515536999999995,42.13185852348862,27.247706613017048,29.7982909241247,42.13185852348862
6.246841907501221,12.682000000000016,21.59449702137988,2.3886866757217504,21.75557799658246,21.59449702137988,0.0,0.0,0.0,,0.0,-6.8066180000000145,-7.9900947202172965,-26.449201199445877,-8.370961861769826,-7.9900947202172965
6.262423038482666,40.174004999999994,15.443148975811125,-0.765830171428151,15.584437438618796,15.443148975811125,0.0,0.0,0.0,,0.0,-32.54086899999999,-25.33849529321127,-39.66292597547154,-16.854873867927385,-25.33849529321127
6.262423038482666,40.80230800000001,9.814985740112277,-0.14962951314954331,8.631525014148787,9.814985740112277,0.0,0.0,0.0,,0.0,15.097976000000017,-17.70979363527077,-25.08525306342975,-6.104500077330539,-17.70979363527077
6.263098955154419,-26.672967,4.289288829239493,1.2806492666056397,2.7177530081649386,4.289288829239493,0.0,0.0,0.0,,0.0,-19.11462899999998,-0.8852091032412892,-1.6524129933130125,10.634693355293068,-0.8852091032412892
6.263098955154419,-6.8627170000000035,0.04231912214303796,1.690135863775501,-1.053827135885688,0.04231912214303796,0.0,0.0,0.0,,0.0,-21.57548300000002,8.725967464664759,14.129057098638542,10.120017233007939,8.725967464664759
6.276855945587158,22.203786000000008,-1.7116033084918225,1.7951361548373868,-2.5541949777686153,-1.7116033084918225,0.0,0.0,0.0,,0.0,14.525772000000018,3.590769586539894,15.111294403005099,0.9098648034166761,3.590769586539894
6.276855945587158,26.983378000000016,-1.6748644438316278,2.9094225155288047,-1.894546509927047,-1.6748644438316278,0.0,0.0,0.0,,0.0,46.61037299999998,-8.105917132951438,8.253586492660576,-1.826563129633392,-8.105917132951438
6.292447090148926,-30.233351999999996,-1.548052680251598,4.879143526996016,-0.49897426875103523,-1.548052680251598,0.0,0.0,0.0,,0.0,-77.453328,-9.955221482691686,7.710787478358954,-0.19499869407359738,-9.955221482691686
6.292447090148926,-9.895775999999998,-2.1445719838561796,6.655429214262503,-0.3411457705714731,-2.1445719838561796,0.0,0.0,0.0,,0.0,-1.9709270000000174,2.0061299826222427,15.919459059607973,5.004887073632285,2.0061299826222427
6.293107032775879,21.063116000000008,-2.853049599873993,8.134115448349204,-0.8312401147672749,-2.853049599873993,0.0,0.0,0.0,,0.0,24.746917999999994,11.368071761031212,17.172984833385947,9.503864816756229,11.368071761031212
6.293107032775879,26.291495999999995,-2.48254301509784,10.681125754104535,-0.8092501107548086,-2.48254301509784,0.0,0.0,0.0,,0.0,38.158199000000025,3.5725377295363376,0.5532584267986551,5.142338841548588,3.5725377295363376
6.306756019592285,-30.562462999999994,-0.7595672772041335,14.904443361478982,-0.5994457715652374,-0.7595672772041335,0.0,0.0,0.0,,0.0,-64.80872599999998,-12.325721129153854,-19.96276137064158,-1.8431968219439667,-12.325721129153854
6.306756019592285,-6.944995000000006,0.8920332330494817,17.94282722696972,-0.29090763106240375,0.8920332330494817,0.0,0.0,0.0,,0.0,-28.460639000000015,-17.41828206664183,-23.188799577466717,-1.6344582913825754,-17.41828206664183
6.322551012039185,26.88240000000002,0.9039676694920279,15.666775840391354,0.08284735765201376,0.9039676694920279,0.0,0.0,0.0,,0.0,-4.360723000000007,-9.730218927078521,-9.524726376489696,2.00148045620345,-9.730218927078521
6.322551012039185,26.66922600000001,0.03754745050913716,9.023750658116459,-0.09376219648198414,0.03754745050913716,0.0,0.0,0.0,,0.0,36.93525199999999,-2.378573825013613,3.408529314651181,3.2429237045916195,-2.378573825013613
6.323246002197266,-30.065056,0.9269192123480302,4.196338009496074,0.3117134036477569,0.9269192123480302,0.0,0.0,0.0,,0.0,-54.351966000000004,-1.912088635368467,6.428610298543577,2.919866183159326,-1.912088635368467
6.323246002197266,1.0172520000000134,4.748592866286438,4.980623977549202,2.87864845531417,4.748592866286438,0.0,0.0,0.0,,0.0,-21.040677000000017,-3.2313901239690064,4.901799608886964,2.291545644583048,-3.2313901239690064
6.3369200229644775,31.590935,9.4787256515808,8.819631726570567,5.979619585558108,9.4787256515808,0.0,0.0,0.0,,0.0,10.337084000000004,-2.158710827618094,4.006129828543481,1.2243619219419704,-2.158710827618094
6.3369200229644775,36.329387999999994,11.70528190875611,10.650590949635518,7.5654848284819085,11.70528190875611,0.0,0.0,0.0,,0.0,24.047556999999983,-0.35754530864936096,2.7322005308153354,-0.1966952921533349,-0.35754530864936096
6.352365016937256,-13.83762999999999,9.800220176365682,8.732578835626844,7.409846162855231,9.800220176365682,0.0,0.0,0.0,,0.0,-43.644632,0.8981957766469968,0.9265719902225089,-1.5043707534860356,0.8981957766469968
6.352365016937256,-3.444447999999994,5.4633752784637375,4.7252019113336905,5.555624990552468,5.4633752784637375,0.0,0.0,0.0,,0.0,-13.059731,2.6431602129412877,1.3376111913428155,-2.1507517449083764,2.6431602129412877
6.3532350063323975,20.202939000000015,1.7277992301741252,0.8363919251613818,2.8904540135334233,1.7277992301741252,0.0,0.0,0.0,,0.0,7.1282489999999825,3.674490376226977,3.529280865317565,-2.4004792479769987,3.674490376226977
6.3532350063323975,32.37631300000001,-0.31544438923730245,-2.034665312730543,0.6244645126406072,-0.31544438923730245,0.0,0.0,0.0,,0.0,20.472212000000013,-0.2687380837946688,1.9613677159192733,-2.718210230807948,-0.2687380837946688
6.3667778968811035,-28.935605999999993,-1.1773062036015707,-3.420679868255611,-0.6444353746281075,-1.1773062036015707,0.0,0.0,0.0,,0.0,-48.38682499999999,-10.12008395955725,-6.218939111952774,-2.7832273383413635,-10.12008395955725
6.3667778968811035,-13.183147999999989,-0.5327708114669787,-2.072035272584662,-0.6054914178066894,-0.5327708114669787,0.0,0.0,0.0,,0.0,-28.337221999999997,-17.937839499178168,-13.532524415601657,-2.758515078761114,-17.937839499178168
6.382317066192627,26.452312000000006,1.7691406589689898,1.638078803906629,0.4066315826903045,1.7691406589689898,0.0,0.0,0.0,,0.0,-32.473550999999986,-13.95758882963805,-9.460419638889832,-2.8465423509194014,-13.95758882963805
6.382317066192627,34.328541,3.66997934772924,4.124548046661934,1.8764416955621643,3.66997934772924,0.0,0.0,0.0,,0.0,30.005217000000016,-2.1412417188521036,2.257402820253825,-1.960865091077811,-2.1412417188521036
6.383091926574707,-28.438199999999995,3.2186344963844156,2.769124362687546,2.9530779713725384,3.2186344963844156,0.0,0.0,0.0,,0.0,-35.43929200000002,0.9195190631249492,4.846428325903082,-2.158112527484563,0.9195190631249492
6.383091926574707,-7.120769999999993,1.4692164709674667,-0.033540664964463396,2.783474924457199,1.4692164709674667,0.0,0.0,0.0,,0.0,-24.53000400000002,-10.721407945676185,-7.127966862722198,-7.5372926555899955,-10.721407945676185
6.396691083908081,26.022222999999997,0.5284494698476376,-0.5975126863296261,1.6217225845590983,0.5284494698476376,0.0,0.0,0.0,,0.0,-49.86034599999999,-22.72869716778795,-18.98230116553443,-13.963767710155704,-22.72869716778795
6.396691083908081,25.584654999999998,0.3771289057107054,0.5474628004473718,-0.0447601734847559,0.3771289057107054,0.0,0.0,0.0,,0.0,15.59912300000002,-22.631763221916174,-19.108653695328798,-14.79554848206166,-22.631763221916174
6.412373065948486,-27.38354799999999,-0.3991933099891458,0.30822159272385474,-1.5942358754998949,-0.3991933099891458,0.0,0.0,0.0,,0.0,-46.92078500000002,-16.66060881116599,-14.200699620457447,-14.210506750085942,-16.66060881116599
6.412373065948486,-13.231765999999993,-1.9711597125222022,-1.5292963625103846,-2.421039833226241,-1.9711597125222022,0.0,0.0,0.0,,0.0,-52.91584399999999,-15.762636600781514,-13.775559309728369,-18.12894614391521,-15.762636600781514
6.413084030151367,25.01245,-2.8617477097414628,-2.2777578272310084,-2.688707451165847,-2.8617477097414628,0.0,0.0,0.0,,0.0,-28.617713999999978,-20.788740154155768,-17.22745746921959,-24.351277628658135,-20.788740154155768
6.413084030151367,21.321168999999998,-2.028830921019711,-1.04820981732727,-2.7184284805768053,-2.028830921019711,0.0,0.0,0.0,,0.0,6.462546999999972,-28.860662153949285,-22.549592902271183,-30.00176744923863,-28.860662153949285
6.426737070083618,-30.203431999999992,-0.9167725768985721,-0.26211779298109816,-3.2945942600577105,-0.9167725768985721,0.0,0.0,0.0,,0.0,-75.47866099999999,-39.03896735982365,-31.14837748505969,-33.75175448268947,-39.03896735982365
6.426737070083618,-9.065517999999997,-2.7039438839579755,-2.6022906886955433,-4.850912427451613,-2.7039438839579755,0.0,0.0,0.0,,0.0,-96.72877200000005,-46.329668235511875,-39.23745348294105,-34.31660456957181,-46.329668235511875
6.442445993423462,14.862362000000019,-8.398381415034937,-7.927902643147019,-7.071468498747752,-8.398381415034937,0.0,0.0,0.0,,0.0,-16.754751999999996,-43.2154828546111,-38.35716140353243,-32.7951842578085,-43.2154828546111
6.442445993423462,13.085910000000013,-14.323242035638305,-12.990249404257806,-10.407876030853147,-14.323242035638305,0.0,0.0,0.0,,0.0,-33.19161200000002,-31.448071626038324,-28.047311803375575,-30.69711221642223,-31.448071626038324
6.4430930614471436,-49.44147799999999,-15.617092309508333,-14.285988081424907,-12.817879977854979,-15.617092309508333,0.0,0.0,0.0,,0.0,-47.672505,-23.330379921191167,-18.963350483538047,-30.023873455896624,-23.330379921191167
6.4430930614471436,-16.242385999999996,-12.116866518274557,-11.818119191484314,-10.894129701637857,-12.116866518274557,0.0,0.0,0.0,,0.0,-64.22904199999999,-27.860843508914392,-20.774680806945916,-32.770471753002354,-27.860843508914392
6.456790924072266,15.591642000000007,-8.479391877441653,-9.141123888850437,-7.83760613666864,-8.479391877441653,0.0,0.0,0.0,,0.0,-42.61990000000003,-40.98804460123057,-31.30261921295913,-37.68441002903846,-40.98804460123057
6.456790924072266,15.498144999999994,-8.526353966625289,-9.283135676667843,-8.608001849400555,-8.526353966625289,0.0,0.0,0.0,,0.0,-29.89676000000003,-52.01833685407076,-41.37477853457254,-42.96021211700596,-52.01833685407076
6.472352981567383,-42.37306699999999,-11.7386139335024,-11.831157638512723,-11.226808352622994,-11.7386139335024,0.0,0.0,0.0,,0.0,-90.378422,-55.500423291290446,-45.61973419217938,-46.84968622418543,-55.500423291290446
6.472352981567383,-19.675613999999996,-15.126730111991206,-14.146530946361406,-12.426037336922551,-15.126730111991206,0.0,0.0,0.0,,0.0,-100.63696800000002,-54.40061130718606,-45.2060980011214,-47.24643768548607,-54.40061130718606
6.473071098327637,5.090002999999996,-16.458057300254023,-14.244358424438069,-12.983402518762537,-16.458057300254023,0.0,0.0,0.0,,0.0,-42.23469,-54.010087617399755,-43.667559470085294,-44.94894180033995,-54.010087617399755
6.473071098327637,9.129095000000007,-15.849305906792047,-12.55734792579778,-13.893088311017914,-15.849305906792047,0.0,0.0,0.0,,0.0,-30.319368999999995,-54.1903917008486,-41.68314409226131,-41.98850877469811,-54.1903917008486
6.48676609992981,-45.443524999999994,-15.354291263159892,-11.524822004577192,-14.544821544675875,-15.354291263159892,0.0,0.0,0.0,,0.0,-100.00118499999996,-49.18105461484939,-36.42897436327998,-38.4660466787506,-49.18105461484939
6.48676609992981,-20.490911999999994,-16.246353920560814,-12.725437317040857,-14.649924318915847,-16.246353920560814,0.0,0.0,0.0,,0.0,-74.39783,-37.90249104570801,-27.97750799151631,-33.69654107977238,-37.90249104570801
6.502372980117798,2.647849000000008,-16.578670987449733,-14.31310591522025,-13.801742372441906,-16.578670987449733,0.0,0.0,0.0,,0.0,-20.113181999999995,-29.74637255006161,-22.521856015241653,-29.10683947153828,-29.74637255006161
6.502372980117798,14.727726000000018,-13.41702067713009,-12.851744446476136,-11.177751091081428,-13.41702067713009,0.0,0.0,0.0,,0.0,-5.295698000000016,-31.988964710345883,-23.16990590239036,-26.915648691763966,-31.988964710345883
6.503089904785156,-41.89062,-7.637347787662683,-8.130763761333911,-7.888930829034819,-7.637347787662683,0.0,0.0,0.0,,0.0,-95.51330499999995,-36.697330276955796,-23.353389670052827,-25.08486287560759,-36.697330276955796
6.503089904785156,-6.701900999999992,-3.5111780462998117,-4.022974528982263,-5.928092172642141,-3.5111780462998117,0.0,0.0,0.0,,0.0,-57.30274700000001,-31.482926644138498,-18.144146570336112,-20.120889478442628,-31.482926644138498
6.517107963562012,20.868640999999997,-2.522827889187768,-3.070158979485475,-4.569605801746401,-2.522827889187768,0.0,0.0,0.0,,0.0,-22.345902000000024,-18.394376451186464,-14.62977711442922,-13.518073897761543,-18.394376451186464
6.517107963562012,21.208972000000017,-1.3186759162721509,-2.998812748446739,-2.347028677614736,-1.3186759162721509,0.0,0.0,0.0,,0.0,23.819422999999972,-8.568567807906069,-19.347492098488296,-8.31398263185499,-8.568567807906069
6.532306909561157,-31.426379999999995,1.7286827729838445,-1.8913568881031675,-0.8868773716064049,1.7286827729838445,0.0,0.0,0.0,,0.0,-48.55138099999999,-1.8658964287203936,-23.057205163068918,-2.8491351555263313,-1.8658964287203936
6.532306909561157,0.00373899999999594,2.2360732149513574,-3.4903005609311126,-1.4015290484052525,2.2360732149513574,0.0,0.0,0.0,,0.0,-37.526156000000015,11.609586874629919,-13.217045557712787,5.257902998100424,11.609586874629919
6.533176898956299,19.727971999999994,-3.1797973755836053,-11.496390146143074,-2.8656078029146137,-3.1797973755836053,0.0,0.0,0.0,,0.0,39.96457099999998,30.154378303124645,3.975116786055267,13.469777124490719,30.154378303124645
6.533176898956299,13.489819000000011,-9.257497576273854,-20.82107054202436,-5.932032944876932,-9.257497576273854,0.0,0.0,0.0,,0.0,76.29021899999998,38.85213350355691,11.202336631716857,18.767452491044384,38.85213350355691
6.546709060668945,-41.80460199999999,-7.841281146684731,-21.975679767602635,-7.401521007800761,-7.841281146684731,0.0,0.0,0.0,,0.0,-32.74656399999998,32.106668330216635,5.424977274427118,20.796031903280166,32.106668330216635
6.546709060668945,-1.686694999999986,0.5085323951177884,-14.1471456219096,-1.1513380716244612,0.5085323951177884,0.0,0.0,0.0,,0.0,-11.619868999999994,20.745012854580416,-2.0074433681703283,19.72227972681754,20.745012854580416
6.562334060668945,27.678999000000005,6.742554078552746,-6.92982866840575,5.995634099931843,6.742554078552746,0.0,0.0,0.0,,0.0,20.15432099999998,14.297217884885372,-5.87097890745388,16.706590605838098,14.297217884885372
6.562334060668945,28.662593000000015,4.841082413126462,-7.514829938744469,3.5667115674110286,4.841082413126462,0.0,0.0,0.0,,0.0,44.57960800000001,12.023352660767362,-9.442789526179496,13.311958071679042,12.023352660767362
6.563117980957031,-31.157106999999996,-1.7507724984251611,-12.317064315230919,-2.790831292645803,-1.7507724984251611,0.0,0.0,0.0,,0.0,-54.38188500000001,12.026433970662666,-11.494206769731214,10.889610834108092,12.026433970662666
6.563117980957031,-15.240093000000002,-5.915812227260666,-13.960541950435044,-4.4627289842463425,-5.915812227260666,0.0,0.0,0.0,,0.0,-10.19496700000002,15.033683619159941,-7.409123550193403,10.44793395284479,15.033683619159941
6.57679295539856,14.720246000000003,-5.349294792216783,-11.256142083615934,-3.171717141709793,-5.349294792216783,0.0,0.0,0.0,,0.0,31.56475599999999,19.2994300200271,1.0638540434246408,11.605346767150287,19.2994300200271
6.57679295539856,29.373174000000006,-2.9419581260852623,-8.016997573505238,-1.841017318379736,-2.9419581260852623,0.0,0.0,0.0,,0.0,30.147334,21.255722266457873,8.063491746833737,13.726659883127175,21.255722266457873
6.592353105545044,-40.114166999999995,-0.9640747665312297,-5.836233095939203,-0.4016533968296106,-0.9640747665312297,0.0,0.0,0.0,,0.0,-28.857068000000027,19.74504830609728,10.790061806290975,15.392424359263154,19.74504830609728
6.592353105545044,-3.1340370000000064,1.1312289922506926,-3.232478437911987,1.0558853113478386,1.1312289922506926,0.0,0.0,0.0,,0.0,-1.3949830000000247,15.95155976778897,9.771176783944874,14.969810268527578,15.95155976778897
6.593065023422241,23.505270999999993,3.2696372536365104,-0.22218973297427613,1.7498345266627333,3.2696372536365104,0.0,0.0,0.0,,0.0,3.0704579999999737,12.268673753901563,7.527205235035067,13.1035324679108,12.268673753901563
6.593065023422241,30.77563599999999,3.2628888886293796,0.8271874776978785,1.193403504313489,3.2628888886293796,0.0,0.0,0.0,,0.0,29.81822199999999,10.841177300497948,7.771113382021891,10.91237171523245,10.841177300497948
6.606795072555542,-35.03164299999999,0.15089313080477698,-1.1734444540291216,-0.07326182769628134,0.15089313080477698,0.0,0.0,0.0,,0.0,-29.171220000000005,10.535639660151508,10.628675511856546,9.048556354963322,10.535639660151508
6.606795072555542,-9.342270999999997,-3.5402790237843362,-3.993215999199724,-1.5531655485933034,-3.5402790237843362,0.0,0.0,0.0,,0.0,-21.829795999999988,8.467790858230575,10.835762707328254,8.233663221528111,8.467790858230575
6.624363899230957,17.136221000000006,-4.33088831273422,-4.240296225509426,-2.3900291252926893,-4.33088831273422,0.0,0.0,0.0,,0.0,0.4974070000000097,5.655889597778787,5.313985465521692,8.222716405819586,5.655889597778787
6.624363899230957,21.437106,-1.6875914491168578,-1.2137570225964764,-1.4441842581675672,-1.6875914491168578,0.0,0.0,0.0,,0.0,30.510104000000013,6.626317709127517,-0.3764639314688578,8.476432447979994,6.626317709127517
6.624377012252808,-31.02995,1.4171655279484277,1.9734033273955156,0.19802544769678038,1.4171655279484277,0.0,0.0,0.0,,0.0,-27.477044999999976,12.790434633594328,2.2434196021867834,8.717474160423917,12.790434633594328
6.624377012252808,-2.5543519999999944,2.0114972815898544,2.073567816713883,1.1291021279446933,2.0114972815898544,0.0,0.0,0.0,,0.0,-21.50816500000002,19.603252843566516,13.148573663251312,8.633472720136986,19.603252843566516
6.636786937713623,18.60974200000001,0.6552557597092481,-0.18571992862331366,1.7223785498621629,0.6552557597092481,0.0,0.0,0.0,,0.0,30.543763000000013,20.928569559169034,22.34607668352941,8.334110560240937,20.928569559169034
6.636786937713623,23.957798999999994,0.48725565798351667,-1.1548700214375405,1.749349388267624,0.48725565798351667,0.0,0.0,0.0,,0.0,36.57996200000002,15.427965136482038,20.981673601282115,8.062727005614951,15.427965136482038
6.652308940887451,-26.085803,3.1526678515808526,1.203200122925967,1.9368805183594744,3.1526678515808526,0.0,0.0,0.0,,0.0,-44.00740300000001,8.300459267357468,11.796836742664436,7.907916053916485,8.300459267357468
6.652308940887451,-3.709980999999999,6.893902709844026,5.121861668268358,4.442157200200466,6.893902709844026,0.0,0.0,0.0,,0.0,-12.199553999999978,5.772341126327713,3.896621491170909,7.9819163763464305,5.772341126327713
6.653053045272827,29.533990000000017,8.230799780321842,6.786883517065856,6.268289972400159,8.230799780321842,0.0,0.0,0.0,,0.0,-8.874781999999982,8.373671946130031,0.7781583110921249,8.211099399204416,8.373671946130031
6.653053045272827,28.254943999999995,4.855521554368002,3.56223884808176,2.888678068794367,4.855521554368002,0.0,0.0,0.0,,0.0,55.91524399999997,11.784011671354088,-0.7854685645963997,8.472641941667957,11.784011671354088
6.666815996170044,-33.243971,-1.9734525410184125,-3.256538822198266,-2.302694983090895,-1.9734525410184125,0.0,0.0,0.0,,0.0,-47.530388000000016,13.482980619109815,-1.8569184562372367,8.794272600239816,13.482980619109815
6.666815996170044,-16.350842999999998,-7.528151914600727,-8.741188500172129,-4.573605886753828,-7.528151914600727,0.0,0.0,0.0,,0.0,-8.867302999999993,14.669231430075413,1.9728042504848347,9.13055344233159,14.669231430075413
6.682358026504517,10.161307999999991,-7.863715685397245,-9.058675664887625,-4.656663757747699,-7.863715685397245,0.0,0.0,0.0,,0.0,14.753904999999975,15.538520269691922,11.753274913652277,9.553318496684117,15.538520269691922
6.682358026504517,21.294990000000013,-4.346000931052053,-5.775565677456045,-3.5500976277234746,-4.346000931052053,0.0,0.0,0.0,,0.0,38.087140999999974,13.988494506223015,20.010371420023297,10.162296771499674,13.988494506223015
6.6831018924713135,-34.900746999999996,-1.9272766517369924,-3.5219133596135737,-1.9303897767051768,-1.9272766517369924,0.0,0.0,0.0,,0.0,-32.596968000000004,10.898294994317494,20.563168223959323,10.571313832365636,10.898294994317494
6.6831018924713135,-12.390288999999996,-2.548666586891087,-3.6999563919874645,-1.5955061129546555,-2.548666586891087,0.0,0.0,0.0,,0.0,-16.212466000000006,10.853411737556806,17.927830751562613,10.595140145188346,10.853411737556806
6.699012041091919,19.892527,-2.7708784193238785,-3.0765171833989595,-1.3967934218277038,-2.7708784193238785,0.0,0.0,0.0,,0.0,2.415975000000003,13.581150820847538,18.52279016330252,10.135545976596593,13.581150820847538
6.699012041091919,19.028611000000012,0.6412294812054533,0.7531051187905595,0.9298026709328728,0.6412294812054533,0.0,0.0,0.0,,0.0,45.48466300000001,10.969453089508686,18.917755218964604,9.06609970794568,10.969453089508686
6.712376117706299,-26.79638399999999,5.073741423098635,5.041738326819748,3.090593690478761,5.073741423098635,0.0,0.0,0.0,,0.0,-34.796028999999976,-0.007871458868980441,12.732858647997658,8.792307659907513,-0.007871458868980441
6.712376117706299,0.8900959999999998,4.937971582803893,5.110740551093935,2.4957381762642146,4.937971582803893,0.0,0.0,0.0,,0.0,-63.249188000000004,-7.285162743209328,5.021577470961313,9.724452669548853,-7.285162743209328
6.713330030441284,12.401508000000007,-0.7128434725847246,0.47022970162255406,0.2915800938165316,-0.7128434725847246,0.0,0.0,0.0,,0.0,36.306948999999975,2.2524546590804917,7.412638928774984,11.445701743361376,2.2524546590804917
6.713330030441284,18.20209300000002,-6.652340413964259,-4.7272323208388585,-2.767336283756875,-6.652340413964259,0.0,0.0,0.0,,0.0,7.969726999999978,21.475331278605083,19.01715810209491,16.04284128998756,21.475331278605083
6.7267889976501465,-39.366187,-7.598865122973532,-6.383430342156334,-4.626035925755169,-7.598865122973532,0.0,0.0,0.0,,0.0,21.063116999999977,28.135019794944483,24.458053904857827,18.65909202743338,28.135019794944483
6.7267889976501465,-16.470519999999993,-3.499621335033474,-3.850450145067217,-1.9365855517481134,-3.499621335033474,0.0,0.0,0.0,,0.0,-34.627733999999975,13.242301636681756,14.981605618463698,10.307649563150838,13.242301636681756
6.742485046386719,22.660053000000005,1.3251404324493494,0.25125381426499827,2.1955212695902846,1.3251404324493494,0.0,0.0,0.0,,0.0,1.7315740000000233,-6.581892823045836,1.2325182942836737,-0.15685036022734777,-6.581892823045836
6.742485046386719,25.936206,2.927620144491507,2.5211724226384975,2.8425326977761656,2.927620144491507,0.0,0.0,0.0,,0.0,1.5408390000000054,-10.911577006779686,-2.5845259961155715,1.4317142470796258,-10.911577006779686
6.743093013763428,-34.28366299999999,1.4005528524518354,2.229723357419826,1.7993261806260423,1.4005528524518354,0.0,0.0,0.0,,0.0,-26.755244000000005,-0.4527144967763038,1.8103391146998344,7.876264230683775,-0.4527144967763038
6.743093013763428,-10.10521,-0.08850384696214172,1.6665542531772444,2.0349694847364925,-0.08850384696214172,0.0,0.0,0.0,,0.0,-32.01728300000002,8.613669945559902,3.7406586651698053,7.438503087982815,8.613669945559902
6.756807088851929,19.795289999999994,0.6062223339308251,2.811556083860104,2.8082970698708336,0.6062223339308251,0.0,0.0,0.0,,0.0,24.028857000000016,8.209430330772758,1.4849341568249201,4.26060643973304,8.209430330772758
6.756807088851929,26.429873000000015,2.683577997979456,4.802250176838832,3.144895935869854,2.683577997979456,0.0,0.0,0.0,,0.0,11.159861999999976,5.229548639852366,1.7455070267503667,4.7102549010477155,5.229548639852366
6.772365093231201,-33.89471399999999,4.246422668585395,5.504757362005041,3.330681774443303,4.246422668585395,0.0,0.0,0.0,,0.0,-18.961293000000012,7.243707167479968,5.509715901557506,6.299721145405037,7.243707167479968
6.772365093231201,-3.844617999999997,4.527153715750405,4.398106754947587,3.541070462776418,4.527153715750405,0.0,0.0,0.0,,0.0,-27.159153000000003,11.66595452697227,5.752300016241165,5.853947907485808,11.66595452697227
6.773051977157593,24.092434999999995,4.319715539412869,3.13023453652535,3.8137603948353367,4.319715539412869,0.0,0.0,0.0,,0.0,23.542669999999987,11.723241930312222,-0.537791669931055,4.326263989196715,11.723241930312222
6.773051977157593,23.76332400000001,5.0461416407316,3.6873367474389216,4.254708487940498,5.0461416407316,0.0,0.0,0.0,,0.0,29.758383999999978,6.5064034672094095,-6.823622739325291,2.925536121011714,6.5064034672094095
6.7868030071258545,-25.532297,6.854347079092875,5.895014396057115,4.582025155537638,6.854347079092875,0.0,0.0,0.0,,0.0,-55.55621400000001,0.6239746724692817,-7.241330416906916,1.692593503688639,0.6239746724692817
6.7868030071258545,-8.695267999999999,7.5422953710287315,6.964379896008466,4.596701187391303,7.5422953710287315,0.0,0.0,0.0,,0.0,-7.34142300000002,-2.4122668441288226,-5.413927282568101,0.7404958901597671,-2.4122668441288226
6.803165912628174,31.759230000000002,5.1210002091539195,4.863986025893235,4.35241870069392,5.1210002091539195,0.0,0.0,0.0,,0.0,-8.900961999999993,-2.7306789110460343,-8.090933244924198,0.18091789365151997,-2.7306789110460343
6.803165912628174,17.80566300000001,1.5223571736675017,1.8115230698551084,3.611718259340331,1.5223571736675017,0.0,0.0,0.0,,0.0,4.270965999999987,-2.7146399979757723,-15.013807410702249,-0.08615262008909513,-2.7146399979757723
6.803186893463135,-37.91884599999999,0.822049870632237,1.7289536707329032,3.021311020331102,0.822049870632237,0.0,0.0,0.0,,0.0,-10.258545000000026,-4.233514099074417,-19.321426559651826,-0.04347715230404106,-4.233514099074417
6.803186893463135,-3.63144299999999,3.3176191215472324,4.542749169713306,3.768446967283571,3.3176191215472324,0.0,0.0,0.0,,0.0,-59.946856000000025,-5.0470713394797855,-15.065498145344206,0.4632068863885355,-5.0470713394797855
6.817361116409302,23.486570999999998,5.038665674629294,6.379113940465887,4.794516068820958,5.038665674629294,0.0,0.0,0.0,,0.0,10.31838399999998,-1.2969375423878438,-3.4733737944168723,1.0390245579353539,-1.2969375423878438
6.817361116409302,22.039230000000003,3.8245826057100394,5.116561978902931,4.245600436309136,3.8245826057100394,0.0,0.0,0.0,,0.0,29.002924000000007,4.519447067098898,6.5553554530987626,1.2975952286486532,4.519447067098898
6.83242392539978,-34.57537599999999,1.8892777424194835,2.584419681563918,2.9572497805650197,1.8892777424194835,0.0,0.0,0.0,,0.0,-30.139854000000014,5.798462878276976,7.7995459130407365,1.8537558947105552,5.798462878276976
6.83242392539978,-9.192674999999994,1.3742886960374368,1.263265147472147,2.863324978467655,1.3742886960374368,0.0,0.0,0.0,,0.0,-26.57198900000003,3.6266926562967203,5.185616440540807,2.3970182110523712,3.6266926562967203
6.8331849575042725,18.766818,1.167073645944025,0.6736114042446012,3.13787672592579,1.167073645944025,0.0,0.0,0.0,,0.0,3.6838020000000142,6.14564256107244,9.035787480640082,3.0162490573440714,6.14564256107244
6.8331849575042725,18.845355000000012,-0.06874381604433527,-0.6858697816936679,1.6924902859412925,-0.06874381604433527,0.0,0.0,0.0,,0.0,50.982316000000026,13.992732318106988,18.712548045264487,6.2280069903049275,13.992732318106988
6.846798896789551,-33.909673,-0.43810940858671643,-1.6307954543227408,0.7383275189075265,-0.43810940858671643,0.0,0.0,0.0,,0.0,-35.93295899999998,16.158548137100876,21.680043426735885,8.187635462179497,16.158548137100876
6.846798896789551,-15.240093000000002,2.7912761553292995,0.6945106489027717,3.4676325245645705,2.7912761553292995,0.0,0.0,0.0,,0.0,-16.302224000000024,4.878071441756874,10.283756444293097,1.4796202615743346,4.878071441756874
6.862607955932617,30.783116000000007,8.15741297911788,5.750952596662447,6.849603239031583,8.15741297911788,0.0,0.0,0.0,,0.0,-0.3814699999999789,-10.879358642558776,-6.2321324504720845,-6.128241020323487,-10.879358642558776
6.862607955932617,26.934759000000014,10.372512926596361,8.807669059121281,7.512781745830384,10.372512926596361,0.0,0.0,0.0,,0.0,3.5416849999999727,-13.603551976278437,-10.756137798134898,-2.9152542407913264,-13.603551976278437
6.863164901733398,-29.025363999999996,6.550417638650824,6.524425132791539,5.870580157433277,6.550417638650824,0.0,0.0,0.0,,0.0,-47.799661000000015,0.23876969579888163,0.6878016966691689,4.596693026461776,0.23876969579888163
6.863164901733398,-12.72314,-0.09126792723382918,0.806276485239946,1.7239409094440075,-0.09126792723382918,0.0,0.0,0.0,,0.0,-0.8788759999999911,13.659107312768892,12.483643787775556,7.056198150120518,13.659107312768892
6.876712083816528,10.568957000000012,-3.8669421514051208,-3.277345177461639,-1.7298086158511272,-3.8669421514051208,0.0,0.0,0.0,,0.0,25.50237800000002,11.300291969679867,9.885504512016524,6.2194620371119615,11.300291969679867
6.876712083816528,20.019684000000012,-2.411933821074205,-2.7919644113626276,0.2724953858906518,-2.411933821074205,0.0,0.0,0.0,,0.0,-0.9349750000000085,-0.32256453529109697,-1.0223372981730732,4.360555660546087,-0.32256453529109697
6.892502069473267,-37.877707,1.993139021550752,0.9591350271883505,4.3700197372606215,1.993139021550752,0.0,0.0,0.0,,0.0,-26.46727199999998,-4.492333564904575,-4.137945232767043,3.1468042197850257,-4.492333564904575
6.892502069473267,-7.494759999999985,5.396828863194232,4.29530822823812,5.664109766999217,5.396828863194232,0.0,0.0,0.0,,0.0,-36.16483199999999,2.2615580678371443,3.611579990416351,5.100189130850096,2.2615580678371443
6.893254995346069,24.350488000000013,5.524561251742068,4.690024435326368,4.840772742112904,5.524561251742068,0.0,0.0,0.0,,0.0,34.28740299999998,9.919928896095369,11.315448458300455,8.467178246337852,9.919928896095369
6.893254995346069,18.965032000000008,3.0844244998296277,2.554241509975314,3.0162684053801345,3.0844244998296277,0.0,0.0,0.0,,0.0,15.01943799999998,11.54525248362033,11.882398897535985,10.778542395887825,11.54525248362033
6.906785011291504,-37.34664099999999,0.5415094971712789,-0.07976280420068205,1.2374419436389514,0.5415094971712789,0.0,0.0,0.0,,0.0,-22.615175000000022,9.489712138170557,9.498083053663358,11.285793954794052,9.489712138170557
6.906785011291504,-11.025224999999992,-0.28049396288856177,-1.6710913976267991,0.9655330831896524,-0.28049396288856177,0.0,0.0,0.0,,0.0,-11.646048000000008,8.672374328232177,10.383636581211242,8.732261282996626,8.672374328232177
6.922568082809448,14.424793999999991,0.6990471504047998,-1.7151439436534153,1.6843582690179097,0.6990471504047998,0.0,0.0,0.0,,0.0,10.954166999999984,9.761160120017333,13.034728473914962,4.29955446725718,9.761160120017333
6.922568082809448,21.53060400000001,2.366264724902653,-0.6802482533066438,2.546431219387221,2.366264724902653,0.0,0.0,0.0,,0.0,18.84535599999998,7.285344098863487,8.778115544042901,1.840895768814303,7.285344098863487
6.9231250286102295,-36.15361299999999,3.05128899215502,-0.08765847358375911,2.737893951984306,3.05128899215502,0.0,0.0,0.0,,0.0,-20.820022999999992,-3.8752447390893234,-6.676893742591315,0.48688150329301777,-3.8752447390893234
6.9231250286102295,-11.410434999999993,1.295127248109476,-1.1741734906254995,1.7517763060110556,1.295127248109476,0.0,0.0,0.0,,0.0,-52.354858999999976,-16.523806307909133,-21.23777021759817,-4.621613460904903,-16.523806307909133
6.936736106872559,14.413574000000011,-2.4594415830963947,-3.0012284283528814,0.45763964171835086,-2.4594415830963947,0.0,0.0,0.0,,0.0,-17.947780000000023,-14.013576327923916,-15.061465788095864,-7.096856277940098,-14.013576327923916
6.936736106872559,9.865856000000008,-5.009298115435049,-3.085304322519088,-1.2523822867710548,-5.009298115435049,0.0,0.0,0.0,,0.0,39.33626800000002,7.3648077891990384,12.903432924138176,3.5352574652858983,7.3648077891990384
6.952368974685669,-38.977238,-2.785806553580665,-0.04524589627864417,-1.504656285551665,-2.785806553580665,0.0,0.0,0.0,,0.0,-5.086264000000028,28.61947563582821,38.09214631276497,16.537122040432074,28.61947563582821
6.952368974685669,-10.213667000000001,4.031107807290438,4.735379485726717,3.6166243534518205,4.031107807290438,0.0,0.0,0.0,,0.0,-8.474612999999977,29.13304101540782,37.46250332464173,17.23218791386672,29.13304101540782
6.953066110610962,25.173266000000012,10.483066545003776,7.746261056381352,9.399037946985269,10.483066545003776,0.0,0.0,0.0,,0.0,17.390535,10.421377227116643,14.088947762982992,10.984448302693933,10.421377227116643
6.953066110610962,27.45834500000001,11.407913534247632,6.322297588817081,8.322239932207106,11.407913534247632,0.0,0.0,0.0,,0.0,35.285956,-6.757780999465067,-8.434267085393852,4.98067151566373,-6.757780999465067
6.966860055923462,-25.001232,7.676669904983865,2.8558309094120125,4.982028488342633,7.676669904983865,0.0,0.0,0.0,,0.0,-72.50918000000001,-6.051315895050807,-11.406125513184506,1.3402938041473926,-6.051315895050807
6.966860055923462,-12.824117000000001,5.907259739762806,3.2965601654302716,6.328321792833028,5.907259739762806,0.0,0.0,0.0,,0.0,-17.005325000000028,6.628891927649454,-0.15519211773185404,4.063187083612843,6.628891927649454
6.9825661182403564,20.53578999999999,10.05071120602492,9.467818628347615,10.060208903996712,10.05071120602492,0.0,0.0,0.0,,0.0,46.93948399999999,12.320699714011736,4.84426251640282,8.727469727455139,12.320699714011736
6.9825661182403564,43.73439000000002,16.03775270620806,15.82359611032848,12.848396826466185,16.03775270620806,0.0,0.0,0.0,,0.0,-1.8288110000000302,5.2800440920235845,-4.47245351818859,7.2187955616108255,5.2800440920235845
6.983386039733887,-26.72906499999999,17.980531242126006,16.989382374866786,14.662956533277075,17.980531242126006,0.0,0.0,0.0,,0.0,-25.139607000000012,-1.17480052746656,-15.630281178495695,2.769115949305195,-1.17480052746656
6.983386039733887,2.027025000000009,16.238125170643904,14.53422946045247,15.2833008211852,16.238125170643904,0.0,0.0,0.0,,0.0,-40.27498200000002,1.7233433926033865,-17.52795357129862,2.3367501815905762,1.7233433926033865
6.996766090393066,31.007509999999996,15.195361914688005,13.062847215611697,15.068802534630835,15.195361914688005,0.0,0.0,0.0,,0.0,21.822316,4.494870873523076,-16.90688327391907,3.3859387541114736,4.494870873523076
6.996766090393066,33.43470500000001,16.182852818913847,13.961803689517113,15.00229286788574,16.182852818913847,0.0,0.0,0.0,,0.0,31.74801100000002,-1.3454466655503754,-22.458997595206633,-0.7926221694186083,-1.3454466655503754
7.012495994567871,-22.22248599999999,16.703743218621717,15.449810482892257,14.789609201733938,16.703743218621717,0.0,0.0,0.0,,0.0,-61.68590999999998,-5.307873710927802,-25.69606245020711,-4.604052723722483,-5.307873710927802
7.012495994567871,0.41512800000000993,14.931549153043898,15.48231479450153,14.001985315495066,14.931549153043898,0.0,0.0,0.0,,0.0,-26.61686800000001,4.80735592346453,-15.525234600713876,2.8291489228644306,4.80735592346453
7.013230085372925,28.625193999999993,12.195367153381525,13.264527127220564,13.278419089136136,12.195367153381525,0.0,0.0,0.0,,0.0,33.58430199999998,17.851531270093233,-2.6748582638757057,11.47527882457705,17.851531270093233
7.013230085372925,26.097021000000012,11.40108984958798,10.356712796338378,12.979841773190538,11.40108984958798,0.0,0.0,0.0,,0.0,43.524955999999975,12.620566637465243,-7.023370505835723,5.252393437347175,12.620566637465243
7.026700019836426,-23.894221,13.912855456847891,10.033451159421665,13.506278087119355,13.912855456847891,0.0,0.0,0.0,,0.0,-55.672150999999985,-7.489058332576311,-23.77716772251948,-5.653986379108507,-7.489058332576311
7.026700019836426,4.196167000000003,18.02327083536393,13.581946591592315,15.53666940946081,18.02327083536393,0.0,0.0,0.0,,0.0,-54.38188500000001,-15.883992505185358,-26.601260447514214,-5.951443395532736,-15.883992505185358
7.058784008026123,36.291989,20.679647536065904,18.349954145902903,17.58030199751428,20.679647536065904,0.0,0.0,0.0,,0.0,15.243831999999998,-1.4133650353706022,-7.089372643412978,-1.377187829300134,-1.4133650353706022
7.058784008026123,36.565000999999995,20.45903907943551,20.4269900653982,17.71815448928576,20.45903907943551,0.0,0.0,0.0,,0.0,39.30260900000002,15.53562477063858,11.284001973647715,0.0717410813552003,15.53562477063858
7.0596771240234375,-21.84475599999999,18.05052532748182,18.365041187501095,16.43094220514641,18.05052532748182,0.0,0.0,0.0,,0.0,-24.084955999999977,13.308053746921814,6.77550735258383,-0.7376047024391283,13.308053746921814
7.0596771240234375,2.367356000000001,14.526473560312812,13.650696096283916,14.642221728016537,14.526473560312812,0.0,0.0,0.0,,0.0,-40.95190400000001,-2.052446988829658,-11.034522674562467,-3.730855983897969,-2.052446988829658
7.06026291847229,27.94453200000001,10.907409057145635,8.936840646057005,12.96692704963748,10.907409057145635,0.0,0.0,0.0,,0.0,-1.4772600000000011,-9.828190824409013,-17.702013337584923,-7.105270888383005,-9.828190824409013
7.06026291847229,21.186532999999997,8.87871617067583,6.79396683348729,11.939101006198957,8.87871617067583,0.0,0.0,0.0,,0.0,27.364847999999995,-4.815037464460992,-7.8613233174514985,-6.45457872306461,-4.815037464460992
7.060975074768066,-26.682316999999998,9.664788454524274,8.156686159739227,11.679473659385508,9.664788454524274,0.0,0.0,0.0,,0.0,-54.96717899999999,-0.7322179908125099,1.5698365395956964,-4.732019825506286,-0.7322179908125099
7.0719380378723145,1.1799379999999928,12.162243762718203,11.370749143778818,12.453569131411419,12.162243762718203,0.0,0.0,0.0,,0.0,-27.17224299999998,-7.511463435710316,-2.0818364948894104,-7.926856725377473,-7.511463435710316
7.0719380378723145,26.319546000000003,13.738458888759252,13.866021159823493,13.33727698172693,13.738458888759252,0.0,0.0,0.0,,0.0,-10.712942999999996,-16.732587246863652,-10.245681447908106,-11.739903625782748,-16.732587246863652
7.08751106262207,28.86267700000002,12.97092726480229,14.612882811001647,12.817396122010381,12.97092726480229,0.0,0.0,0.0,,0.0,7.182478000000003,-13.670604047069292,-6.7460255376710805,-9.180331604528046,-13.670604047069292
7.08751106262207,-22.718022999999988,11.19915334686716,14.327220966712304,11.947693318326747,11.19915334686716,0.0,0.0,0.0,,0.0,-51.50777199999999,0.8701795102967045,7.915468961950864,-4.87484406977516,0.8701795102967045
7.0882248878479,-3.300461999999982,11.2951607107726,14.314408717966216,12.085893763334292,11.2951607107726,0.0,0.0,0.0,,0.0,-7.567686999999978,9.530981522784046,15.790426690677096,-5.602139971758956,9.530981522784046
7.0882248878479,27.561192000000005,13.956181972532118,15.201987282871443,12.356502296508955,13.956181972532118,0.0,0.0,0.0,,0.0,20.234729000000016,1.6921528347755843,6.417676769597769,-8.838431203597258,1.6921528347755843
7.1018218994140625,33.571212,15.470930584529194,15.444927478025493,12.576543124659674,15.470930584529194,0.0,0.0,0.0,,0.0,-20.077652999999998,-12.806696389996596,-9.52063042307562,-10.748081134924126,-12.806696389996596
7.1018218994140625,-23.282747999999998,11.829515908487654,12.800383982233392,11.940539300218143,11.829515908487654,0.0,0.0,0.0,,0.0,-49.824816999999996,-19.689168245397212,-16.942187464846402,-11.680270604853964,-19.689168245397212
7.1174750328063965,-6.595314000000002,5.254534922919836,8.361762511216275,8.03204336504881,5.254534922919836,0.0,0.0,0.0,,0.0,-33.866664000000014,-18.058109966117897,-14.033363377863296,-12.209676649893895,-18.058109966117897
7.1174750328063965,14.755775,2.763436638044911,6.836127812855972,4.3426019885968525,2.763436638044911,0.0,0.0,0.0,,0.0,-22.938675999999987,-14.574291141649068,-7.0865180311377935,-12.128549509665199,-14.574291141649068
7.118096113204956,26.476620999999994,6.915811783848657,10.79881793659673,6.628452063714557,6.915811783848657,0.0,0.0,0.0,,0.0,6.976783000000012,-11.853189260645674,-0.48216870908788856,-11.550887844968434,-11.853189260645674
7.118096113204956,-24.030727999999996,11.967015099566982,15.871725788801104,10.791633864279055,11.967015099566982,0.0,0.0,0.0,,0.0,-37.10541699999999,-9.595875617213881,2.9079368657918057,-10.838960934784696,-9.595875617213881
7.131695985794067,1.5352290000000153,11.666549419301653,16.297931178686184,10.393488487284348,11.666549419301653,0.0,0.0,0.0,,0.0,-52.203393000000005,-8.55180537162458,1.3116524328335206,-10.16153636694153,-8.55180537162458
7.131695985794067,23.020954000000017,7.563432528357588,12.907413203449309,7.919814595761972,7.563432528357588,0.0,0.0,0.0,,0.0,2.612320000000011,-9.700596696489924,-3.487353688695819,-9.984521174659845,-9.700596696489924
7.1474220752716064,22.830219,5.920668834204557,10.942366711367804,7.223833118251927,5.920668834204557,0.0,0.0,0.0,,0.0,7.84069999999997,-13.383658348145955,-8.385428175862643,-10.580186559147958,-13.383658348145955
7.1474220752716064,-28.107219,8.18635803945297,12.105602002083613,7.125161691426494,8.18635803945297,0.0,0.0,0.0,,0.0,-60.17311999999998,-18.29966752400191,-11.882475548266715,-10.859952003797206,-18.29966752400191
7.148233890533447,1.9540970000000186,9.183163915802034,12.595099422699795,6.55731099389979,9.183163915802034,0.0,0.0,0.0,,0.0,-58.213413,-20.2221356181495,-12.319825688215147,-11.233399190099217,-20.2221356181495
7.148233890533447,23.065832999999998,5.413829789447365,9.585964485459588,5.82639847494843,5.413829789447365,0.0,0.0,0.0,,0.0,5.944570999999996,-15.689759170385019,-7.644672582524265,-11.304250464252403,-15.689759170385019
7.16171407699585,14.826832999999993,0.7866912885499778,5.754557772010315,4.11251236243554,0.7866912885499778,0.0,0.0,0.0,,0.0,-1.13506000000001,-8.906413572301023,-0.6969583333506861,-6.673921991823646,-8.906413572301023
7.16171407699585,-28.873897999999997,1.3013053965261827,5.58986317995019,3.092381551584612,1.3013053965261827,0.0,0.0,0.0,,0.0,-58.23585200000002,-10.591005741677002,-0.7585123303346677,-3.3838683386670207,-10.591005741677002
7.177517890930176,-5.420985000000002,6.756357716411512,9.490673305644075,6.030940316424998,6.756357716411512,0.0,0.0,0.0,,0.0,-33.84796399999999,-24.030118684137506,-11.963087343818252,-13.609508051016162,-24.030118684137506
7.177517890930176,30.650350000000003,11.141040040010495,13.479715430299308,9.508632951764316,11.141040040010495,0.0,0.0,0.0,,0.0,-36.78378600000002,-34.913874572679745,-21.806683473451308,-24.555512465268663,-34.913874572679745
7.178179025650024,31.940615000000008,10.388669507111256,13.856617810037363,8.150512955224542,10.388669507111256,0.0,0.0,0.0,,0.0,-24.139184,-25.907937170125923,-13.69892904648186,-16.489507591041704,-25.907937170125923
7.178179025650024,-29.63309799999999,6.580061371267394,10.586190116215004,4.601593428597843,6.580061371267394,0.0,0.0,0.0,,0.0,-22.467448999999988,-1.1261683733590284,8.411038128241128,-1.0157954429026859,-1.1261683733590284
7.192168951034546,-6.468156999999991,3.8420624625577076,6.587970414708318,3.3583512269640687,3.8420624625577076,0.0,0.0,0.0,,0.0,-15.006348000000003,17.225179314955014,23.083383442564855,4.497206855968919,17.225179314955014
7.192168951034546,29.846271,2.9873960898380023,4.095022588479429,2.99209283882588,2.9873960898380023,0.0,0.0,0.0,,0.0,12.156544999999994,16.952729014997235,19.982444626799484,4.298234653476867,16.952729014997235
7.20743989944458,14.550080000000008,2.109378509884732,2.631861108656852,1.163726703465926,2.109378509884732,0.0,0.0,0.0,,0.0,39.719607999999994,7.507755008192556,10.320054377662913,4.7756287236182855,7.507755008192556
7.20743989944458,-26.27466799999999,0.3685628701529402,0.9235202476857294,-0.5846708966382099,0.3685628701529402,0.0,0.0,0.0,,0.0,-50.22124600000001,3.6498098908800163,8.680757142550803,5.797554426875563,3.6498098908800163
7.20815110206604,-11.457183999999998,-0.9115130251780158,-0.530592205346057,-0.5326706735055355,-0.9115130251780158,0.0,0.0,0.0,,0.0,-15.548633999999993,8.74213550125243,16.139378887004007,8.209963584150508,8.74213550125243
7.20815110206604,24.83854500000001,-0.056744137801264805,0.19739880963108902,0.6979717788671145,-0.056744137801264805,0.0,0.0,0.0,,0.0,21.857844999999998,15.521999482786262,23.537697944396285,11.0471468792495,15.521999482786262
7.221667051315308,19.228695000000016,2.8222253850632764,3.5736933613157804,2.2757055589613904,2.8222253850632764,0.0,0.0,0.0,,0.0,34.87269700000002,16.735800599310206,24.008588290940036,12.033144412401166,16.735800599310206
7.221667051315308,-22.695583,5.290854224306834,7.114364277201867,3.223750973798445,5.290854224306834,0.0,0.0,0.0,,0.0,-26.603777999999977,12.771076665520075,18.970091351885035,12.614768436005907,12.771076665520075
7.237533092498779,1.8531200000000183,4.866276326428679,7.7642139664444985,2.7421628083050043,4.866276326428679,0.0,0.0,0.0,,0.0,-30.459614999999985,10.491077834654732,15.09240022759702,14.051903209193485,10.491077834654732
7.237533092498779,19.856998000000004,1.8043120055966673,5.011634439565725,0.8844374649224673,1.8043120055966673,0.0,0.0,0.0,,0.0,37.78233899999998,15.353026678817258,17.24523843649401,15.05487693885231,15.353026678817258
7.238138914108276,21.300600000000003,-1.67108706965801,0.6130853190752008,-2.1894300683839,-1.67108706965801,0.0,0.0,0.0,,0.0,30.42969599999998,24.383315444508593,23.393981405171576,16.273639992666073,24.383315444508593
7.238138914108276,-29.87619099999999,-4.072092765626394,-3.2562314018550937,-4.67832239831479,-4.072092765626394,0.0,0.0,0.0,,0.0,-7.264755999999977,27.044407339562035,25.01100824368625,14.680058935001751,27.044407339562035
7.2516748905181885,-10.56334799999999,-4.817942769113622,-4.3595257646277155,-5.39613913676377,-4.817942769113622,0.0,0.0,0.0,,0.0,-25.623923999999988,14.902243250795477,14.641163821087082,4.21240367589016,14.902243250795477
7.2516748905181885,19.527886999999993,-3.571753868772091,-1.695217072950611,-4.931498808017833,-3.571753868772091,0.0,0.0,0.0,,0.0,12.227602999999988,-7.031356420873547,-3.500040942116636,-6.840032052399657,-7.031356420873547
7.2674400806427,21.730688000000015,-2.076938242734137,1.4252579596942527,-2.898326824266992,-2.076938242734137,0.0,0.0,0.0,,0.0,-3.2817620000000147,-20.576570864233783,-13.440168365112129,-9.221237502609,-20.576570864233783
7.2674400806427,-30.425956999999997,-4.833394650626505,-1.4977293627101425,-3.769364319904743,-4.833394650626505,0.0,0.0,0.0,,0.0,-62.63771400000002,-13.69301776889274,-5.47424511893373,-10.735432963902815,-13.69301776889274
7.268165111541748,-17.67289799999999,-14.699980804086579,-13.270277240505285,-12.604974938725189,-14.699980804086579,0.0,0.0,0.0,,0.0,-35.50474000000003,-1.6060439354998064,5.31006448883204,-10.739708902604475,-1.6060439354998064
7.268165111541748,-2.245810000000006,-28.361387339684605,-28.388174142695974,-24.537074749365853,-28.361387339684605,0.0,0.0,0.0,,0.0,-6.988002999999992,-15.237263833514053,-8.23305398622503,-15.727056459909608,-15.237263833514053
7.281857013702393,-16.412550999999993,-38.267674946328086,-37.31508042813371,-33.93338661165947,-38.267674946328086,0.0,0.0,0.0,,0.0,-10.252935999999977,-55.57968289286296,-42.50434334113551,-48.988154862588935,-55.57968289286296
7.281857013702393,-57.861863,-38.68528146904765,-34.396075314003525,-36.66496326128885,-38.68528146904765,0.0,0.0,0.0,,0.0,-135.16933400000005,-73.72527367453141,-46.231638289217095,-68.28970667891947,-73.72527367453141
7.297449111938477,-34.94375599999999,-29.09817981534877,-21.309511078524622,-28.79015553297898,-29.09817981534877,0.0,0.0,0.0,,0.0,-80.88842599999998,-23.316055542044893,20.952077984437658,-15.373051789605828,-23.316055542044893
7.297449111938477,16.266694,-13.73444094367904,-6.096656918341153,-15.204893237966825,-13.73444094367904,0.0,0.0,0.0,,0.0,113.05904600000002,72.74928657425811,124.91240151671397,62.42708917307154,72.74928657425811
7.298160076141357,25.22375500000001,0.41431857840901526,1.7329007126360254,-2.657173315945109,0.41431857840901526,0.0,0.0,0.0,,0.0,173.421031,138.8869448847087,184.62598933241364,107.39561597925204,138.8869448847087
7.298160076141357,-12.777368999999993,7.039778722948028,-1.149489733262194,4.95161491041959,7.039778722948028,0.0,0.0,0.0,,0.0,45.523932,130.50226395252213,159.84478468406917,110.11892309609944,130.50226395252213
7.311718940734863,3.098507000000012,4.57251251181335,-11.40311630787724,4.295402597742064,4.57251251181335,0.0,0.0,0.0,,0.0,79.01099699999997,74.1621556023153,85.98656720283614,70.61772327474573,74.1621556023153
7.311718940734863,26.38312400000001,-3.428031245751404,-23.058661742517714,-2.4511101673949987,-3.428031245751404,0.0,0.0,0.0,,0.0,11.90597200000002,24.084624176973062,24.080641520391687,16.729565139088223,24.084624176973062
7.327404022216797,15.25318200000001,-12.416798308813958,-31.344969344518184,-11.488071205782488,-12.416798308813958,0.0,0.0,0.0,,0.0,31.218815000000006,4.034377300866364,-0.3625317288353944,-1.8510636453059657,4.034377300866364
7.327404022216797,-38.141369999999995,-20.04546662351963,-33.3439708424046,-19.779077303784234,-20.04546662351963,0.0,0.0,0.0,,0.0,-39.99635999999998,0.44291000368774114,-3.181967470605853,0.6723584877463967,0.44291000368774114
7.328150033950806,-24.78992699999999,-25.26164615688936,-28.166665024610452,-24.171830140221324,-25.26164615688936,0.0,0.0,0.0,,0.0,-29.24788699999999,-3.1351415272076646,-3.2296596688380483,-7.5837726519270054,-3.1351415272076646
7.328150033950806,3.97364300000001,-27.191455405601438,-17.97232405278708,-25.403469311075693,-27.191455405601438,0.0,0.0,0.0,,0.0,-0.7087109999999939,-3.4463053236276933,2.057347098890106,-14.08123917673625,-3.4463053236276933
7.341734886169434,4.411212000000006,-26.45000173500371,-8.401595349838601,-25.337546301524885,-26.45000173500371,0.0,0.0,0.0,,0.0,28.387711000000024,7.521359351609102,19.411434611821345,-0.002613429260479852,7.521359351609102
7.341734886169434,-41.87004999999999,-25.59050769936001,-5.739901404182259,-25.083109446455712,-25.59050769936001,0.0,0.0,0.0,,0.0,-23.611857999999984,21.207758796550593,36.67665758238264,17.5645328140841,21.207758796550593
7.357499122619629,-27.43403699999999,-26.728317268428558,-11.345920712662899,-26.08080015280611,-26.728317268428558,0.0,0.0,0.0,,0.0,9.617152999999973,21.49509817353535,34.86718394424172,18.02025423645618,21.49509817353535
7.357499122619629,8.596159999999998,-29.46468694410589,-19.626229382923313,-27.896897784028937,-29.46468694410589,0.0,0.0,0.0,,0.0,2.0849939999999947,8.002382142062846,15.132257780565293,7.745986243347717,8.002382142062846
7.358258962631226,-0.3983000000000061,-31.59964448000632,-23.440304454831466,-29.456353413295382,-31.59964448000632,0.0,0.0,0.0,,0.0,14.467803000000004,-4.653701795167682,-3.2798557190599436,-4.286158132692294,-4.653701795167682
7.358258962631226,-48.934720999999996,-31.68746835096161,-21.613373536553148,-30.86067387443125,-31.68746835096161,0.0,0.0,0.0,,0.0,-34.45382799999999,-6.718518393417472,-7.1922316276927045,-12.405029908941655,-6.718518393417472
7.371922969818115,-26.222308999999996,-31.059273881326547,-20.033818943056886,-32.071679177780496,-31.059273881326547,0.0,0.0,0.0,,0.0,-36.73516699999999,0.08369017519068389,1.8035302930680572,-10.191724302801344,0.08369017519068389
7.371922969818115,4.9048779999999965,-32.53755439850721,-24.715487143664802,-32.991948242037346,-32.53755439850721,0.0,0.0,0.0,,0.0,24.890903999999978,10.26907140533914,16.4009625043041,-2.36061883427483,10.26907140533914
7.387480974197388,1.415551999999991,-36.20153753208848,-34.10290386607051,-34.014751201840106,-36.20153753208848,0.0,0.0,0.0,,0.0,33.16356300000001,16.84004729978163,27.82228055306334,5.917600038359834,16.84004729978163
7.387480974197388,-59.08480999999999,-38.26051649583286,-40.21326469772751,-34.46589778732257,-38.26051649583286,0.0,0.0,0.0,,0.0,-25.264894000000027,11.674194483000813,26.68606579798088,10.218259600512754,11.674194483000813
7.388230085372925,-26.71971599999999,-36.15525431976834,-38.42411895833222,-33.07243879391873,-36.15525431976834,0.0,0.0,0.0,,0.0,-21.854105000000004,-4.705186068204978,12.12902823091736,2.0854299326830095,-4.705186068204978
7.388230085372925,9.228203000000008,-32.5424152131029,-32.633904246661146,-31.09120352766233,-32.5424152131029,0.0,0.0,0.0,,0.0,-26.24848800000001,-18.38563599449439,-3.39966769232778,-8.624796681509245,-18.38563599449439
7.401636123657227,1.9840169999999944,-31.470446925115823,-29.281149769251524,-30.511845355908417,-31.470446925115823,0.0,0.0,0.0,,0.0,20.825632999999982,-16.662951354113293,-7.145152375665276,-5.184140090203591,-16.662951354113293
7.401636123657227,-44.79091199999999,-32.65223744933807,-29.081492105122777,-30.2131588964258,-32.65223744933807,0.0,0.0,0.0,,0.0,-44.413182000000006,-3.9604136866159214,-0.9951249252581329,2.681928803076149,-3.9604136866159214
7.41756010055542,-23.739014999999995,-32.38790743267586,-28.54579782812143,-28.6330483031368,-32.38790743267586,0.0,0.0,0.0,,0.0,-33.978860999999995,3.307046221540746,1.7412529963057763,-0.23620125072361178,3.307046221540746
7.41756010055542,13.211196000000001,-28.750818217352716,-25.563529959985303,-26.398183785008303,-28.750818217352716,0.0,0.0,0.0,,0.0,20.892950999999982,-4.327691591943847,-7.51791178751251,-8.06507600033253,-4.327691591943847
7.418225049972534,14.853012000000007,-23.58884751312446,-21.00384212139446,-24.37092370339324,-23.58884751312446,0.0,0.0,0.0,,0.0,7.519069000000002,-18.77020645119387,-22.20341081304202,-12.120685623565095,-18.77020645119387
7.418225049972534,-33.40291699999999,-20.299409281205122,-17.7287367016266,-23.226340624137386,-20.299409281205122,0.0,0.0,0.0,,0.0,-74.31368200000003,-23.621947344024832,-27.82666796636315,-13.5706396825639,-23.621947344024832
7.4317169189453125,-7.724763999999993,-21.066141026805834,-18.15368971223624,-23.25597986996411,-21.066141026805834,0.0,0.0,0.0,,0.0,-37.569165,-14.733365947052011,-20.87303806794857,-14.384933254232129,-14.733365947052011
7.4317169189453125,17.49712200000002,-25.334056658990647,-22.536732104143894,-24.395656711309684,-25.334056658990647,0.0,0.0,0.0,,0.0,9.295521000000008,-5.899583533141227,-14.05506821475607,-14.147377872943187,-5.899583533141227
7.447438955307007,9.183323999999999,-29.85617292753085,-28.104006300555152,-27.171948769993527,-29.85617292753085,0.0,0.0,0.0,,0.0,37.10167799999999,-8.190975736152813,-16.341174456794633,-13.059408589960865,-8.190975736152813
7.447438955307007,-39.540093,-31.149288672992167,-30.44741457035475,-29.550536026817472,-31.149288672992167,0.0,0.0,0.0,,0.0,-79.24660999999998,-13.727046796018794,-18.804654271904667,-13.003088573858538,-13.727046796018794
7.448182106018066,-18.27876099999999,-28.877929284904507,-28.4803577555484,-28.629792333011864,-28.877929284904507,0.0,0.0,0.0,,0.0,-32.72973400000001,-12.506112060646949,-13.41499269747711,-13.700695036024896,-12.506112060646949
7.448182106018066,24.359837999999996,-26.141529044874094,-26.071589971752807,-26.934914053265516,-26.141529044874094,0.0,0.0,0.0,,0.0,10.447410999999988,-12.649509376442252,-11.854559792921195,-15.465698613160347,-12.649509376442252
7.461716890335083,9.385278999999997,-26.082772447121265,-26.67894980916496,-27.526869305538476,-26.082772447121265,0.0,0.0,0.0,,0.0,18.858446000000015,-23.86519142719017,-24.578066389948624,-23.374511710770417,-23.86519142719017
7.461716890335083,-32.927949999999996,-29.17472755318785,-29.295048615655105,-29.932268478235674,-29.17472755318785,0.0,0.0,0.0,,0.0,-93.64896499999998,-32.70681251070954,-34.6489694805027,-29.26084077098485,-32.70681251070954
7.477555990219116,-20.739615999999998,-33.613074564674214,-31.306733986695722,-33.865439939244,-33.613074564674214,0.0,0.0,0.0,,0.0,-44.36082299999998,-20.777506342180274,-20.403614795751366,-17.515584952230498,-20.777506342180274
7.477555990219116,12.324839999999995,-36.64372078233509,-32.01688352388133,-36.731582070349845,-36.64372078233509,0.0,0.0,0.0,,0.0,27.80428599999999,-0.1439613240401394,4.970090657480298,-3.8491939550371446,-0.1439613240401394
7.478177070617676,5.899692000000016,-35.700321083129346,-31.49240013752179,-35.44266371040978,-35.700321083129346,0.0,0.0,0.0,,0.0,33.88162399999999,-1.4097692168516296,7.362130721501493,-12.195214088786402,-1.4097692168516296
7.478177070617676,-38.029173,-30.596775299713844,-28.560658377806046,-31.95643750891934,-30.596775299713844,0.0,0.0,0.0,,0.0,-71.609734,-27.648261068848413,-17.75771002157409,-29.022313148537574,-27.648261068848413
7.491770029067993,-5.712697999999989,-25.07501441032782,-22.970930008314507,-28.36027550898885,-25.07501441032782,0.0,0.0,0.0,,0.0,-74.601654,-48.11889734707779,-38.49371573843078,-34.79902274997365,-48.11889734707779
7.491770029067993,22.661923,-24.052491660289206,-18.08490022257912,-26.638471029389926,-24.052491660289206,0.0,0.0,0.0,,0.0,-24.644070999999997,-42.32163477241272,-33.042938535339786,-33.24317517769264,-42.32163477241272
7.507494926452637,17.141830999999996,-28.470054970547906,-17.213920223432325,-29.81920796985597,-28.470054970547906,0.0,0.0,0.0,,0.0,19.404471,-25.41240946063907,-15.65765052256796,-29.586403601917137,-25.41240946063907
7.507494926452637,-41.13328999999999,-34.33124067875609,-19.401430009591788,-34.56007024699783,-34.33124067875609,0.0,0.0,0.0,,0.0,-60.08710300000001,-20.844080516036676,-8.700427306692319,-26.374830288233074,-20.844080516036676
7.508311986923218,-17.18671099999999,-37.32141527055386,-21.020961905956618,-35.78358300397935,-37.32141527055386,0.0,0.0,0.0,,0.0,-61.95331299999998,-29.324598129086482,-13.061825197290055,-27.921566498641127,-29.324598129086482
7.508311986923218,11.206610000000012,-36.888646368419614,-20.51081441286317,-35.13287737598836,-36.888646368419614,0.0,0.0,0.0,,0.0,-3.5248559999999998,-37.55164840106201,-17.835740141446045,-32.0096082476898,-37.55164840106201
7.521775007247925,12.137844999999999,-35.389619433742844,-18.896507330563214,-35.21281814158612,-35.389619433742844,0.0,0.0,0.0,,0.0,-14.209749999999985,-40.70362034796716,-20.213980689732246,-34.530569028844475,-40.70362034796716
7.521775007247925,-41.780293,-34.99696613834409,-16.974093958921742,-36.16490463133759,-34.99696613834409,0.0,0.0,0.0,,0.0,-69.28725600000001,-42.30565009038525,-22.534972964390185,-35.20305881636371,-42.30565009038525
7.53766393661499,-13.248595999999992,-36.39379162414219,-14.961964961516234,-38.11148166942856,-36.39379162414219,0.0,0.0,0.0,,0.0,-73.386187,-42.94944944992551,-22.476433002367223,-34.313682881758496,-42.94944944992551
7.53766393661499,9.071127000000018,-39.209156015420874,-13.999284676584434,-40.55145303269476,-39.209156015420874,0.0,0.0,0.0,,0.0,-7.713544000000013,-40.254615011411744,-16.67410869204575,-31.862367493050304,-40.254615011411744
7.538227081298828,3.378998999999993,-42.53792190401321,-15.19792275203087,-42.64191234110982,-42.53792190401321,0.0,0.0,0.0,,0.0,3.109727000000021,-33.612587554768396,-6.1952637088950375,-28.072550824335774,-33.612587554768396
7.538227081298828,-45.84930399999999,-45.231317568069784,-17.596098942038484,-43.77993789671881,-45.231317568069784,0.0,0.0,0.0,,0.0,-66.29159700000002,-24.3845996253468,5.493935910757273,-24.471581021968255,-24.3845996253468
7.551693916320801,-26.663616999999988,-46.155341516507825,-19.274821641810505,-43.47722336662883,-46.155341516507825,0.0,0.0,0.0,,0.0,-37.643962999999985,-16.862280389296252,13.329888287563662,-22.40464875155108,-16.862280389296252
7.551693916320801,6.397098,-44.574405480402746,-19.776638892414695,-41.893911724442,-44.574405480402746,0.0,0.0,0.0,,0.0,30.743848000000014,-17.22461622882954,11.873419070552124,-21.396544149960874,-17.22461622882954
7.567497968673706,5.540661,-40.69975236361643,-19.296513158097262,-39.428932385547405,-40.69975236361643,0.0,0.0,0.0,,0.0,-3.6781910000000266,-24.891444715228666,3.2755070570001337,-20.741533777977075,-24.891444715228666
7.567497968673706,-34.906357,-35.79853162228316,-17.00144659665737,-36.677187043607,-35.79853162228316,0.0,0.0,0.0,,0.0,-79.57946099999998,-29.687958525022783,-1.2632601271582509,-18.04219358986301,-29.687958525022783
7.568166017532349,-13.061600999999996,-31.629841621757755,-12.86933771730606,-34.31121030829938,-31.629841621757755,0.0,0.0,0.0,,0.0,-3.973643999999979,-22.529117347854164,6.53805889047635,-12.051469417532918,-22.529117347854164
7.568166017532349,21.932643000000013,-29.721111097508714,-9.710298841078977,-32.50348205870985,-29.721111097508714,0.0,0.0,0.0,,0.0,18.925764000000015,-3.993719627711519,23.899001403373155,-3.833828519653455,-3.993719627711519
7.581701993942261,18.263801,-30.346241753828398,-10.974650761911178,-31.296418541189464,-30.346241753828398,0.0,0.0,0.0,,0.0,20.649857999999995,16.34230989962314,39.853388412013146,8.438706574814507,16.34230989962314
7.581701993942261,-32.438023,-31.671895706345897,-17.085458163430502,-30.608235780656265,-31.671895706345897,0.0,0.0,0.0,,0.0,22.17947700000002,25.01848432977276,42.22632705898984,18.53002431888386,25.01848432977276
7.613893985748291,-11.662877999999992,-31.32767344513319,-25.05763006188799,-30.098086191065896,-31.32767344513319,0.0,0.0,0.0,,0.0,14.325687000000016,18.10471360965813,30.14393263243103,14.475554951411786,18.10471360965813
7.613893985748291,20.638637000000017,-29.66083577645859,-31.25460545879237,-29.782923136564012,-29.66083577645859,0.0,0.0,0.0,,0.0,27.142323999999974,11.50027494010621,21.026232295454903,7.652732613056824,11.50027494010621
7.6145899295806885,21.551173000000006,-29.3083390858855,-34.57056963719869,-29.803178883808606,-29.3083390858855,0.0,0.0,0.0,,0.0,48.800085000000024,22.72849791024749,30.831103783810747,16.727489864710392,22.72849791024749
7.6145899295806885,-30.69896899999999,-30.493229267540833,-36.72946440365754,-29.522049622704206,-30.493229267540833,0.0,0.0,0.0,,0.0,25.309773000000007,43.18511707876941,48.985000797280755,30.215356455462107,43.18511707876941
7.615396022796631,-15.253181999999995,-29.830778212657478,-39.11984779333103,-28.43401051064531,-29.830778212657478,0.0,0.0,0.0,,0.0,59.03245099999998,47.8321087490185,50.784109924289424,31.487733780546375,47.8321087490185
7.615396022796631,32.20240799999999,-25.518677829114885,-40.81534493817185,-26.66471111244719,-25.518677829114885,0.0,0.0,0.0,,0.0,34.326671999999974,31.284620255745253,31.844439657622395,26.931457472871312,31.284620255745253
7.616095066070557,23.559499000000017,-20.490643341184136,-40.67183444489007,-24.147289034046597,-20.490643341184136,0.0,0.0,0.0,,0.0,63.58016900000001,14.472033200478169,12.266190477752911,24.2470440086088,14.472033200478169
7.616095066070557,-17.33630699999999,-18.475491212887423,-39.54987231941829,-21.95660644283044,-18.475491212887423,0.0,0.0,0.0,,0.0,-19.490488000000028,15.621456632050455,9.09778560150043,25.155347975755298,15.621456632050455
7.626773118972778,-2.156052999999986,-19.631393938451037,-38.7537486541344,-21.434773244752463,-19.631393938451037,0.0,0.0,0.0,,0.0,46.881515999999976,31.554889040085282,20.267001298025484,33.099409080616425,31.554889040085282
7.626773118972778,31.181415000000015,-21.483067195094605,-38.62786943259057,-21.5316529927336,-21.483067195094605,0.0,0.0,0.0,,0.0,62.57413600000001,48.09000542792878,33.93365576095938,42.509307911307,48.09000542792878
7.641823053359985,25.541646000000014,-21.86487701423502,-39.36219253144968,-21.144450898557103,-21.86487701423502,0.0,0.0,0.0,,0.0,93.637745,55.39365380463177,40.9378588495151,44.77119346524742,55.39365380463177
7.641823053359985,-24.30373999999999,-20.02213510978335,-41.06618671494007,-19.868264845393487,-20.02213510978335,0.0,0.0,0.0,,0.0,37.61778399999997,52.00580155763533,38.45163364488046,42.653983282032144,52.00580155763533
7.657557010650635,3.4874560000000088,-16.629806736908986,-42.803346143727396,-17.024987331868918,-16.629806736908986,0.0,0.0,0.0,,0.0,36.982001000000025,43.23097645058701,30.094816373763386,41.011012398820306,43.23097645058701
7.657557010650635,40.519946000000004,-13.52578722703005,-43.212445589492575,-14.46411167810034,-13.52578722703005,0.0,0.0,0.0,,0.0,70.09133500000002,36.77618886021224,22.632420043198813,39.774713932345165,36.77618886021224
7.658265113830566,26.233528000000007,-12.75303891065619,-42.63128069510016,-14.014207309402986,-12.75303891065619,0.0,0.0,0.0,,0.0,66.95355899999998,35.71848612063872,19.15264775141656,38.66128496434124,35.71848612063872
7.658265113830566,-15.687010999999998,-15.142140714386127,-42.816687948893176,-14.817911672479358,-15.142140714386127,0.0,0.0,0.0,,0.0,29.72285499999998,37.36395691907133,18.148025327664197,38.051781852979026,37.36395691907133
7.671716928482056,3.797867999999994,-18.66627455558066,-43.33502405852745,-16.886800203701203,-18.66627455558066,0.0,0.0,0.0,,0.0,33.21592199999998,39.603752159410284,19.405495518500285,38.095400066309956,39.603752159410284
7.671716928482056,27.08248499999999,-18.568513319729487,-40.58067440438474,-17.400661191988338,-18.568513319729487,0.0,0.0,0.0,,0.0,75.81338199999999,42.06648982527373,23.309281213028797,38.09362461819732,42.06648982527373
