time_s,raw_eeg1,nlms_eeg1
20.002326011657715,3.025579000000022,-0.0740134107069838
20.002326011657715,-1.2117279999999937,-0.2021882364644818
20.018043041229248,7.524678000000023,-0.7062672050312706
20.018043041229248,7.66679400000001,-5.847952244605022
20.01914095878601,4.25226600000002,-4.828434433607409
20.01914095878601,3.089157,4.293882549334445
20.03234601020813,2.228980000000007,-3.516905624065764
20.03234601020813,4.334544000000022,-6.012374047099778
20.04803991317749,5.770665000000008,-2.1931184084245974
20.04803991317749,-6.241892999999976,-12.349627415858862
20.048927068710327,11.855482000000023,5.806219340268328
20.048927068710327,10.374482,-0.0178018071406143
20.062362909317017,1.0770910000000242,-1.4195834352475796
20.062362909317017,-6.698160999999999,-2.452403670017528
20.07804012298584,7.405001000000027,4.642890575564437
20.07804012298584,13.403801000000016,5.104123722079361
20.078829050064087,8.194120000000026,8.463944197329862
20.078829050064087,-8.912181999999973,-5.352693896071788
20.09238696098328,3.444447000000025,4.267554285136744
20.09238696098328,7.734113000000008,4.975789123347827
20.107978105545044,-2.415976000000001,-2.0764887740367883
20.107978105545044,-7.625655999999992,-2.831367496945296
20.109162092208862,0.2206540000000245,2.208598912946239
20.109162092208862,7.419961000000001,5.124126274212911
20.12298607826233,1.6006770000000188,5.349141422645817
20.12298607826233,-1.7353139999999885,10.844450602502128
20.123716115951535,-2.488903999999991,0.9034319620890936
20.13737201690674,-5.884732999999983,-7.423542754076907
20.13737201690674,-5.409765999999991,0.6367615576891819
20.153039932250977,-14.02275499999999,-3.265391483990788
20.153039932250977,-6.284901999999988,4.070982826769045
20.15371608734131,-7.12263999999999,2.1435437525979677
20.15371608734131,-11.659138999999982,1.8708119119761992
20.16731095314026,-24.726348999999985,-4.541436300801866
20.16731095314026,-12.14158599999999,0.9998608501837652
20.18302297592163,-16.902477999999988,-10.136423119050493
20.18302297592163,-11.348726999999997,4.163366962805844
20.183738946914676,-19.131458999999992,-3.8132034916549937
20.183738946914676,3.064848000000012,13.89088365198442
20.19732403755188,1.359453000000002,11.543492960515806
20.19732403755188,-9.538614999999991,9.76600027824594
20.2129819393158,-18.49193599999998,2.374838850759716
20.2129819393158,-20.35814599999999,-8.88029425550517
20.21368098258972,-7.627525999999989,-0.3513536979380145
20.21368098258972,-10.260415999999992,3.807261569585787
20.22738289833069,-18.465755999999985,1.551268437078157
20.22738289833069,-11.015875999999992,2.4122555913337784
20.243003129959103,-4.10080099999999,9.394003393207257
20.243003129959103,-10.877499,11.702349036721223
20.243690013885494,-18.18526399999999,5.806251527860482
20.243690013885494,-21.02758799999998,-8.076298284477279
20.257340908050537,-7.825740999999994,5.983457482645889
20.257340908050537,-15.623432999999975,3.258338387875422
20.273020029067997,-27.38915799999998,-6.150127004611647
20.273020029067997,-14.965209999999985,-0.6040200744516113
20.2737090587616,-5.690258,7.852741976416075
20.2737090587616,-7.608826999999991,10.084336672376969
20.287362098693848,-13.839499999999989,5.631167108620403
20.287362098693848,-15.780507999999998,-1.1918593635980983
20.30298900604248,-9.15340599999999,2.368569364368941
20.30298900604248,-8.895353,5.273142836712966
20.30373501777649,-17.69907699999999,0.1877589328059414
20.30373501777649,-8.783155999999991,0.6740085598059302
20.323282957077023,-4.889919999999989,4.727121307096887
20.323282957077023,-0.0691889999999944,15.675297200675814
20.33315396308899,-14.763255999999984,4.99092826368733
20.33315396308899,-15.578553999999995,1.0586465439578276
20.33370590209961,-2.836714999999998,3.590701837851995
20.33370590209961,4.785202000000027,12.821487354807692
20.347362995147705,-15.526194999999973,1.805162210079665
20.347362995147705,-3.719330999999983,11.568247663518363
20.363002061843872,-9.841546999999991,-5.9465449659122855
20.363002061843872,-9.130965999999972,-0.9603606323685394
20.36366295814514,-3.0910279999999943,12.818502525988851
20.36366295814514,-0.1813859999999749,5.155895269983004
20.377345085144043,-5.63415999999998,-4.407388503256181
20.377345085144043,-3.9287649999999994,5.309707140785388
20.39301109313965,-19.138937999999985,-7.819937362024778
20.39301109313965,-11.262708999999973,-5.851664229799003
20.39367389678955,-0.2038249999999948,-2.733475414359088
20.39367389678955,-10.514728999999988,-2.658357238041392
20.407310962677,-10.26789599999998,1.1179425677835866
20.407310962677,-12.69509099999999,-8.232647541718986
20.422966957092285,-4.987156999999996,-7.349281176512156
20.422966957092285,-12.14158599999999,-10.040410691257364
20.42365312576294,-18.76494799999999,-10.832756995170266
20.42365312576294,-10.421231999999977,-6.262427916814085
20.437319040298465,-5.697737999999987,-2.114935693456576
20.437319040298465,-2.806794999999994,4.710198161505453
20.453020095825195,-24.02324799999998,-13.700048012798009
20.453020095825195,-7.1188999999999965,1.2360391045698549
20.453895092010494,-0.6488729999999805,4.393707111088521
20.453895092010494,-2.2495499999999997,4.708832884610045
20.467350959777832,-12.706311,0.6307346901425888
20.467350959777832,-5.925871999999998,0.2500553698936425
20.48304295539856,-2.0401159999999834,-3.341016491499146
20.48304295539856,-8.005255999999974,-2.301651867061139
20.48381209373474,-14.819353999999976,-6.46490839980849
20.48381209373474,-7.814520999999985,-1.7851623616593004
20.497308015823364,1.957837000000012,3.7874495384089113
20.497308015823364,-0.8732669999999985,3.036258578593667
20.513062000274655,-13.401931999999988,-7.535944872102704
20.513062000274655,3.1359060000000056,6.329709075077752
20.51372194290161,14.220969000000023,12.42323005648544
20.51372194290161,11.30384700000002,15.11255557065322
20.52731990814209,-2.223370999999986,9.481693163713798
20.52731990814209,8.098753000000016,12.693640535549273
20.54305911064148,11.98076900000001,10.928888402328418
20.54305911064148,7.52654800000002,6.642059125553177
20.543745040893555,-0.7348909999999762,3.467800606424034
20.543745040893555,7.074020000000019,4.687023207262941
20.55738210678101,12.751188000000012,7.290748534729952
20.55738210678101,19.842039,19.21174658575554
20.572995901107788,6.120346000000012,10.192472114310624
20.572995901107788,9.88268500000001,13.465809189956952
20.57373690605164,12.437037000000004,8.590387269993224
20.57373690605164,8.311927000000026,8.403318358255927
20.603693962097168,8.652258000000018,11.4062396889245
20.603693962097168,-1.172458999999975,-3.383251196724908
20.604387044906616,4.126979000000006,-4.374297478749661
20.604387044906616,8.199730000000017,5.131026688348923
20.605123043060303,13.035421000000014,16.064474291526437
20.605123043060303,5.521962000000002,8.476693428847252
20.619374990463257,6.266202000000021,7.427390407970465
20.619374990463257,-7.627525999999989,-3.821431633617256
20.63299798965454,-21.622231999999983,-11.259893360161964
20.63299798965454,-15.664570999999995,-10.594584271061308
20.633708000183105,-3.9212859999999807,-0.7980575724573553
20.633708000183105,1.2584760000000017,6.9348455221867535
20.64735007286072,15.55611300000001,30.23388961949829
20.64735007286072,26.061492000000012,27.397225466792243
20.662997007369995,28.077298000000013,15.065960982629797
20.662997007369995,39.095044,27.926452191752997
20.66368103027344,5.899692000000016,-0.3869374850167908
20.66368103027344,18.686410000000024,10.485183024446574
20.677366018295288,15.133505000000014,3.645490016441027
20.677366018295288,13.716083000000026,8.1882241522501
20.693078994750977,0.8209080000000029,4.55575841847933
20.693078994750977,5.2227700000000254,3.8021151316613024
20.693814039230347,11.969549,8.27510019157879
20.693814039230347,8.599899000000022,11.136450013414551
20.707353115081787,4.456090000000017,9.02481658536806
20.707353115081787,8.38298500000002,7.230628198122326
20.72296404838562,7.698584000000011,2.101236196785273
20.72296404838562,-5.34244799999999,0.0990763664667229
20.723674058914185,-15.586033999999984,-3.990072761723528
20.723674058914185,-4.328934999999973,4.346290771019696
20.73741102218628,1.531489000000022,-1.5075660263597328
20.73741102218628,2.904032000000001,1.848377190466126
20.75305795669556,-3.326640999999995,-2.4590103012808058
20.75305795669556,6.385879000000017,9.689748434658531
20.753843069076535,7.148818000000006,4.410554800727418
20.753843069076535,-0.1552059999999926,-0.8664202617127398
20.767312049865723,-1.7334439999999915,2.886651646349724
20.767312049865723,5.7837550000000135,3.8836815832953744
20.78279709815979,8.607379000000009,4.484989269210193
20.78279709815979,-0.5478959999999802,-0.7103023424845671
20.798062086105347,-6.980523999999974,-1.180017572830076
20.798062086105347,-12.620292999999975,-14.70344277110875
20.79886507987976,8.857953000000009,4.203879869856273
20.79886507987976,6.430758000000026,5.901493107802397
20.813008069992065,-6.976783999999981,-0.1541236227079929
20.813008069992065,-5.521963,0.843505080481286
20.813918113708496,0.0878870000000233,-1.6270343657827504
20.813918113708496,-7.769642999999974,-12.29759278737312
20.827348947525024,-8.483963999999986,-9.08765604701165
20.827348947525024,-11.382385999999997,-13.162364816284548
20.84303092956543,6.090427000000005,2.2158668376452457
20.84303092956543,11.262708000000003,9.330751014088154
20.843694925308228,-2.9264719999999897,3.175637720940565
20.843694925308228,-0.8134289999999851,4.123910453270099
20.85742402076721,10.256675,7.786999031814121
20.85742402076721,-3.46875799999998,-3.414740174447699
20.873074054718018,-13.768441999999991,-4.689807215439668
20.873074054718018,-12.485655999999976,-7.687537057966731
20.87367796897888,5.772535000000005,2.112332185323506
20.87367796897888,-2.4963839999999777,-3.013635777292217
20.88738894462585,-20.739615999999984,-6.630740572951185
20.88738894462585,-6.195144999999997,5.366693610732609
20.903062105178837,5.843593000000027,3.654690261134257
20.903062105178837,-4.160638999999975,-4.184444775226412
20.90371990203857,-6.681331999999998,6.015021122331481
20.90371990203857,-6.569134999999989,-1.3552068259663166
20.91732406616211,-0.1439869999999814,-5.467410295913535
20.91732406616211,-2.7132979999999804,-2.6934671356829334
20.932990074157715,-6.004409999999979,-2.4823655330709773
20.932990074157715,-6.741169999999983,-5.749582574241234
20.93367409706116,11.920931000000024,4.435205148744887
20.93367409706116,7.664924000000013,4.133729962992078
20.947371006011963,-5.630419999999987,-0.5342732735286173
20.947371006011963,5.903432000000009,2.003073343457729
20.963095903396606,17.340046,4.1326611710139005
20.963095903396606,17.628018000000026,8.944275603611075
20.96372389793396,1.9690570000000207,-1.1224482225259238
20.96372389793396,4.773982000000018,0.7169575472945082
20.97734308242798,15.586033000000016,-2.3791735300574217
20.97734308242798,14.348126000000008,0.7736114554360718
20.993000030517575,5.144232000000017,0.8140424904332608
20.993000030517575,4.212997000000001,-6.702376754043881
20.993698120117188,16.102139000000022,-0.4678997300121494
20.993698120117188,19.101539,6.022749271166816
21.00729203224182,9.920084000000005,5.847276683199389
21.00729203224182,9.774228000000022,0.9334790023164796
21.02307605743408,12.238822000000027,-3.8185486645871407
21.02307605743408,10.817660000000018,3.8006364085218056
21.023739099502563,4.515929,5.240541876834319
21.023739099502563,18.125425000000007,12.399242806606791
21.037292957305908,20.403024000000016,10.076570601152092
21.037292957305908,16.233035,10.805806827043307
21.053097009658813,9.789188000000024,6.955814718213143
21.053097009658813,9.699430000000008,2.3494380325209674
21.05373501777649,8.513882000000024,-3.838273903177896
21.05373501777649,8.282008000000019,2.35953843582873
21.067359924316406,1.7147440000000245,-0.396293455164455
21.067359924316406,12.30988000000002,8.497606798649413
21.08308506011963,11.89101100000002,3.24634948797587
21.08308506011963,13.686163000000022,5.495239309174059
21.083898067474365,4.620646000000022,-0.7676489288344861
21.083898067474365,14.426664000000017,6.810241340704497
21.097350120544437,7.635005000000007,0.9749601627547316
21.097350120544437,17.018414000000007,9.473858392547012
21.11315107345581,7.074020000000019,1.8019814589017853
21.11315107345581,11.40482400000002,10.30902096657294
21.11393690109253,24.763747000000023,16.641364801625556
21.11393690109253,4.568287000000026,-4.287240690071933
21.12944197654724,-1.987756999999988,-8.461411956516894
21.12944197654724,9.433897000000002,3.2718194798885385
21.129451036453247,9.660161000000016,-2.133754506913096
21.158901929855347,19.286664,3.4357167695407025
21.158901929855347,2.8834620000000086,-3.789824774446367
21.159430980682373,9.461946000000012,4.0536994125767
21.159430980682373,22.77225000000001,6.6526881571416325
21.160118103027344,16.507918000000018,3.08133718082312
21.160118103027344,7.984686000000011,3.198915720022704
21.17240595817566,16.784671000000003,12.213598844753012
21.17240595817566,15.48318500000002,4.772539353579075
21.187993049621586,19.56715600000001,4.693033034050512
21.187993049621586,13.706733000000014,7.918590774904123
21.18880009651184,7.113289000000009,2.1359234842290604
21.18880009651184,21.747518000000014,5.537930153217047
21.20251607894897,21.508164000000026,9.749130098702128
21.20251607894897,1.3949820000000273,-6.725980883257176
21.218218088150024,15.112935000000022,8.05423765206098
21.218218088150024,26.485971000000006,7.503876554806066
21.218694925308228,17.891681000000005,3.836104454352796
21.218694925308228,17.506471000000005,11.178260986352695
21.232343912124637,18.553643000000022,7.659828846086741
21.232343912124637,20.008464000000004,0.542957263687363
21.24804902076721,19.41756000000001,5.451290941924526
21.24804902076721,3.220053000000007,-0.3572870463922442
21.248780012130737,5.550011000000012,-2.66448710745226
21.248780012130737,10.759692,-3.4364294083527227
21.26244807243347,27.34240800000001,11.55239892137048
21.26244807243347,11.01774500000002,5.720488237086592
21.27818608283997,22.37208100000001,11.58694693400152
21.27818608283997,14.903501000000006,-1.0296416765776115
21.27871298789978,24.28691000000001,9.996856912416291
21.27871298789978,4.192427000000009,-3.2647862305070383
21.292546033859253,15.090496000000002,4.275022091962406
21.292546033859253,26.34385500000002,7.890324504141958
21.308090925216675,22.110288000000025,11.504828312921935
21.308090925216675,4.121369000000016,-1.1025164374976146
21.308849096298218,16.739792000000023,7.462348113295025
21.308849096298218,24.29439000000002,6.18489322230004
21.3223819732666,22.977945000000005,10.565463102028364
21.3223819732666,4.697314000000006,-4.489272275035518
21.338165044784542,18.564863000000003,5.178716629050607
21.338165044784542,22.009311000000025,4.883187496210425
21.338767051696777,7.7827310000000125,-4.809449025234889
21.338767051696777,1.5296190000000252,-2.206477139092057
21.35235595703125,15.793597000000004,-0.3108988157938803
21.35235595703125,21.702639000000005,3.790638945493896
21.368134021759037,15.509365000000004,4.6977594225847294
21.368134021759037,-3.003139999999973,-8.526621082544008
21.368842124938965,1.2491260000000182,-12.86309929208339
21.368842124938965,14.047064000000006,-3.440408791517214
21.38238000869751,17.824363000000005,5.408849410893751
21.38238000869751,5.505132000000003,-2.2486362926925025
21.39815592765808,10.864409000000023,-0.974675047081508
21.39815592765808,21.34734800000001,5.2936840601107455
21.398773908615112,8.01834500000001,-1.6635846708150377
21.398773908615112,4.989026000000024,-1.126846134290559
21.41250896453857,2.793705000000017,-9.25036660865009
21.41250896453857,12.390288000000028,-4.493834206395277
21.42809796333313,18.179653,8.899948983209391
21.42809796333313,7.277845000000013,0.0439758499995122
21.43039608001709,16.69117300000002,7.723679127910071
21.43039608001709,19.06601000000001,4.585403197985949
21.44253897666931,15.008218000000028,2.8003538114151496
21.44253897666931,5.841723000000002,-0.2375559083879359
21.458184957504272,7.528418000000016,-1.498093848415163
21.458184957504272,16.721092000000027,1.2837116699196829
21.45878291130066,5.621069000000006,-9.33341367185382
21.45878291130066,-3.119076999999976,-8.38191971927313
21.472373008728027,8.80746400000001,-1.3263384665769724
21.472373008728027,14.222839000000022,-4.415429085701529
21.48812794685364,9.207633000000015,-2.203416874667395
21.48812794685364,0.317891000000003,0.5330447147326587
21.48888111114502,7.752812000000006,2.545069674768798
21.48888111114502,21.990611,6.9986896008805
21.50232195854187,14.05454400000002,3.529133875627025
21.50232195854187,10.430581000000018,8.344700120294238
21.517751932144165,8.519492000000014,2.8558304321338905
21.517751932144165,23.89796000000001,11.443792066633234
21.53314208984375,12.599722000000014,5.867368393299786
21.53314208984375,4.618776000000025,2.9035719128843938
21.53376007080078,15.04561700000002,4.8426001315804506
21.53376007080078,16.709873000000016,2.248135034871506
21.54811191558838,16.21994600000002,5.600237277178861
21.54811191558838,3.713720000000024,-2.2239122812487686
21.54881811141968,4.652435000000025,-9.875261368485404
21.54881811141968,22.237445000000008,1.6889159704897416
21.56244707107544,10.007972000000024,-7.864617737993665
21.56244707107544,-3.4369689999999764,-8.666738238342528
21.57814311981201,-7.588256999999999,-15.21581502578562
21.57814311981201,15.95815300000001,-2.3747994390913085
21.578805923461918,10.93920700000001,-2.726067558457437
21.578805923461918,1.9260480000000089,-5.3707043611528205
21.592283964157104,4.375682000000012,-5.485877084399242
21.592283964157104,17.41297400000002,2.724886799920116
21.62447190284729,4.558938000000012,-8.142876721070856
21.62447190284729,-12.704440999999974,-13.520968145022742
21.625082969665527,-22.56655699999999,-23.695872852911315
21.625082969665527,-19.204386999999983,-28.462067924796848
21.62598705291748,-12.117275999999976,-16.642608730271093
21.62598705291748,-15.04561799999999,-8.337054609282383
21.626697063446045,10.404401000000007,21.746524272742885
21.626697063446045,25.54351600000001,26.49153260250459
21.63754200935364,26.085802,16.95887118137893
21.63754200935364,8.06322400000002,-1.0114909277203843
21.65689301490784,8.414774000000023,-2.516259091660002
21.65689301490784,9.899515000000008,-13.25756617987701
21.6680691242218,9.779838000000012,-9.308113006213318
21.6680691242218,-24.724478999999988,-28.503770089633605
21.66875696182251,-5.411635999999987,-1.5209323723765245
21.66875696182251,10.976606000000004,-0.5449490081208594
21.68239998817444,11.919061000000028,-0.4124693424501124
21.68239998817444,-11.062624999999995,-9.357186015236204
21.71449494361877,2.333697000000001,3.8705462059072886
21.71449494361877,8.250219000000016,-6.172367187570806
21.71524405479431,20.999538,7.874692411461812
21.71524405479431,-3.870796999999982,-6.890537754272639
21.715989112854004,6.410188000000005,10.222418337700136
21.715989112854004,11.242139000000009,4.316420592401135
21.716660976409912,7.057191000000017,6.993243608114889
21.716660976409912,-5.882862999999986,3.799613997891452
21.727440118789676,0.1682950000000005,-2.101014510483864
21.727440118789676,9.417068,-0.5169074995586307
21.742410898208615,-2.04198599999998,-8.174989175292382
21.742410898208615,-11.952720999999997,-5.604573838873712
21.758198976516724,-1.7353139999999885,-6.269659852752341
21.758198976516724,13.590796000000012,6.62572998072538
21.758830070495605,1.6156360000000234,-3.451972010125528
21.758830070495605,-2.228980999999976,3.4977162238265604
21.78885698318481,-1.5296199999999942,-1.2625400303751375
21.78885698318481,9.832197000000008,2.5863784352527324
21.78939008712769,6.903855000000021,3.042765650847417
21.78939008712769,-11.874182999999988,-5.973193115271325
21.79017400741577,-4.966587999999973,-5.825309855608311
21.79017400741577,11.889141000000023,-0.1036220235693416
21.80245995521545,6.447587000000027,5.588004922841453
21.80245995521545,-11.702146999999997,-5.361384583634436
21.818133115768436,-5.138622999999996,-4.7384577135969685
21.818133115768436,6.189534000000009,2.294001106679938
21.81946110725403,1.757753000000008,2.908251945520359
21.81946110725403,-12.958754,-6.8316086124721
21.83234691619873,2.812404000000015,2.755000660824952
21.83234691619873,13.362662,6.211371474522695
21.84800791740417,12.150934000000008,12.746039187398472
21.84800791740417,-20.77514499999998,-9.26825372320874
21.84878897666931,-3.9680339999999887,4.513242861935963
21.84878897666931,12.977452,8.070559356646044
21.86238694190979,1.8175910000000213,0.0604861836644416
21.86238694190979,-6.83653799999999,6.235369472054979
21.878050088882446,-9.218853999999991,-1.3367676224015188
21.878050088882446,-7.872489999999999,-6.778856665315398
21.87883400917053,-9.207633999999985,-5.106265399682258
21.87883400917053,-9.334790999999996,0.666981726165357
21.892476081848145,0.8900959999999998,10.973059901016615
21.892476081848145,7.1245090000000175,7.226597193077306
21.908174991607662,-5.344317999999987,1.0771335843194088
21.908174991607662,-7.539638999999994,13.328496340726666
21.908813953399655,-1.5258799999999724,10.793797409745808
21.908813953399655,11.634828000000027,12.877812103415865
21.92240810394287,4.67861400000001,4.80204941766691
21.92240810394287,-11.043924999999971,0.5099928855170095
21.938157081604004,1.2192070000000117,6.555400664072844
21.938157081604004,9.203893000000022,1.90594041744982
21.938868045806885,9.693820000000017,6.114862735120168
21.938868045806885,0.4226080000000252,4.971165289831093
21.953860998153687,9.895775000000016,9.202043052421985
21.953860998153687,16.870688,6.934925750418278
21.968135118484497,13.411281000000002,6.480343923304642
21.968135118484497,-5.553751999999975,-1.9606448976473767
21.968722105026245,10.890588000000008,4.437682330472205
21.968722105026245,11.57125000000002,-6.443407211571369
21.982425928115845,15.565463000000022,7.073612909654248
21.982425928115845,1.6231160000000102,-1.0217789735669545
21.99830198287964,6.728080000000006,0.2417312368130666
21.99830198287964,20.87238100000002,5.845870126986728
21.998821020126343,8.624209000000008,1.7115032134656651
21.998821020126343,-1.49969999999999,5.485122853993088
22.012330055236816,4.469180000000023,1.2232151345607227
22.012330055236816,5.24333900000002,-7.987164110769756
22.028000116348267,-2.419715999999994,-7.378362360230054
22.028000116348267,-6.814097999999973,-3.0898764339597014
22.028690099716187,2.9171210000000087,-1.831026513912212
22.028690099716187,21.904594000000003,9.99291835427254
22.04257893562317,16.182547,14.86156463817894
22.04257893562317,-9.357229999999989,0.0327687967398642
22.05818796157837,-1.148149999999987,-3.04559672836547
22.05818796157837,20.629288000000003,10.028960128723693
22.05880093574524,-5.022685999999993,-8.067638898989392
22.05880093574524,-12.46134699999999,-6.745913508464911
22.088844060897827,2.202801000000022,-4.002256242793815
22.088844060897827,25.60709500000001,13.935751156097666
22.089508056640625,20.105702000000008,19.067313730640706
22.089508056640625,-9.682600999999975,-1.623337097817899
22.090195894241333,-3.7249409999999727,0.5497591328803138
22.090195894241333,26.33263500000001,12.390051301427851
22.10233902931213,5.183501000000007,1.1353039731168684
22.10233902931213,-15.939453999999984,-5.552725302962218
22.118223905563354,7.060931000000011,6.276018910316974
22.118223905563354,26.904840000000007,12.064451325415252
22.119391918182373,11.601169000000027,9.319369795451184
22.119391918182373,-13.299084999999993,-3.405791326797124
22.13304901123047,0.9274950000000216,3.2160561979977818
22.13304901123047,30.910273000000014,18.05326469731081
22.1339271068573,11.524501000000017,5.476187825135019
22.14749407768249,-13.577706999999975,-1.2912828801771603
22.14749407768249,4.299015000000026,9.447392351177657
22.163218021392822,27.75940700000001,11.957573091304967
22.163218021392822,13.600146000000024,6.640972223764141
22.16920208930969,-17.100692999999993,-3.5675425593696275
22.16920208930969,-1.1500199999999836,5.2464455627082005
22.17742896080017,26.78329300000001,11.997106025776832
22.17742896080017,15.088626000000003,5.906139631650159
22.19309711456299,-8.506402999999978,6.632489989011585
22.19309711456299,-5.155452999999994,4.98696790087152
22.19375991821289,9.17210400000002,-2.267722316217206
22.19375991821289,9.370319000000023,-2.1288246578384022
22.207399129867557,-8.076313999999996,2.9420938726841257
22.207399129867557,14.004055000000022,22.61414793987276
22.223238945007324,13.192497000000005,0.0120089975051911
22.223238945007324,10.00984200000002,3.280898922268141
22.22390604019165,-8.300707999999986,4.369126866554099
22.22390604019165,4.486010000000022,10.361651057876502
22.237494945526123,25.122777000000013,13.433649103992414
22.237494945526123,8.394205,7.121307735207694
22.25277209281921,-16.902477999999988,-2.734494741178592
22.25277209281921,0.1103270000000122,7.399204920615106
22.26827311515808,25.82213900000002,12.132904840211138
22.26827311515808,13.203716000000014,12.065598703288169
22.26884794235229,-13.67494499999998,-0.7592477425962212
22.26884794235229,-5.985709999999983,-7.003632060484742
22.28309392929077,31.140277000000022,21.41921976477064
22.28309392929077,9.033728000000025,9.59782910605059
22.283785104751587,-17.88233199999999,-2.8877595088530867
22.283785104751587,4.560808000000009,7.620744015377726
22.29749298095703,29.161869000000024,14.614920368732346
22.29749298095703,13.476729000000006,8.853899381981037
22.31309700012207,-11.950851,3.0455473903286023
22.31309700012207,1.2809150000000216,8.231667305657735
22.31388807296753,19.733582000000013,5.973322333854229
22.31388807296753,4.575767000000013,-2.0053873640392137
22.327551126480103,-27.14606399999998,-10.280170951833078
22.327551126480103,-3.2331439999999816,3.550001123917018
22.34318590164185,18.65649000000002,1.825909152150853
22.34318590164185,11.65539800000002,8.654810272286182
22.343889951705933,-25.84083899999999,-6.118057986319393
22.343889951705933,8.596160000000026,18.031032121334547
22.36224102973938,24.154143000000005,3.655289790721014
22.36224102973938,11.165471000000023,2.560539629584886
22.373220920562744,-11.064493999999996,12.12916135215276
22.373220920562744,-6.827187999999978,3.371416291889176
22.3742949962616,22.632004000000023,5.118027400064545
22.3742949962616,10.309034000000024,-1.164074212369595
22.38799500465393,-14.351867,2.0842014875008736
22.38799500465393,3.173305000000028,10.63196816874591
22.403156995773315,26.454182000000003,9.804016144800492
22.403156995773315,7.376952000000017,3.477292854649813
22.40385890007019,-18.73876899999999,0.060455898342397
22.40385890007019,10.215536000000014,16.30037227377937
22.417362928390503,23.00973400000001,8.433730570806969
22.417362928390503,9.834066000000009,5.79670554154614
22.433048963546756,-22.67314399999998,-8.164407414425499
22.433048963546756,0.0991070000000036,2.535103088639991
22.433897972106934,14.138691000000025,-0.911029523711072
22.433897972106934,5.607980000000026,1.5805721523770684
22.447386026382446,-21.955082999999988,-8.076148086707244
22.447386026382446,-10.866279999999987,-7.277947117200841
22.463097095489506,20.257168000000007,7.800370062938615
22.463097095489506,9.000069000000025,7.934472471696731
22.46378803253174,-20.69473699999999,-6.949310868787878
22.46378803253174,0.2599230000000148,4.921727995812883
22.49648094177246,20.324486000000007,8.233475528096964
22.49648094177246,10.54838700000002,16.67964467633268
22.496661901474,-14.093812999999985,4.277919939908575
22.496661901474,3.58095400000002,9.923085259983733
22.49677610397339,25.20879500000001,16.52484351931914
22.49677610397339,12.650211000000011,13.392988772302472
22.50743412971497,-13.16631799999999,0.4275816318435446
22.50743412971497,-2.945171999999985,0.1668575347451404
22.52319097518921,26.020353,9.35399637548398
22.52319097518921,10.735382000000016,4.204647632485687
22.52374005317688,-22.411350999999986,-8.583554553345039
22.52374005317688,2.9077720000000227,7.727967349389585
22.53738307952881,28.724301000000025,10.978500692620294
22.53738307952881,3.760469000000001,0.916121062066014
22.55343008041382,-33.56747299999999,-16.675004146269732
22.55343008041382,0.1626850000000104,-4.110860950151922
22.55379199981689,29.965948000000022,10.729374626070658
22.55379199981689,9.35535900000002,7.959745249531742
22.567445993423465,-21.177183999999983,1.616434757458105
22.567445993423465,0.9705040000000054,-1.9787888594549088
22.58479404449463,10.14447800000002,-11.869535464201768
22.58479404449463,-5.731396999999987,-4.266842970586195
22.584803104400635,-50.65507499999998,-18.211927722437643
22.584803104400635,-29.13569099999998,-22.493560068509183
22.597469091415405,2.6983370000000093,-8.829586093813454
22.597469091415405,-4.373812999999984,11.059762057484422
22.6130690574646,-15.028787999999992,16.405046960186645
22.6130690574646,17.968349000000018,6.806994420068062
22.6137490272522,42.494613000000015,5.6106722560476925
22.6137490272522,28.851458000000008,20.938557865629598
22.6274471282959,-21.300600999999983,-5.103803755635823
22.6274471282959,-2.215890999999999,-7.428092002351217
22.64310908317566,12.825986,-15.010386471998787
22.64310908317566,2.6160600000000045,10.00948637248571
22.64386391639709,-29.393743999999984,-0.6561882441337197
22.64386391639709,1.8531200000000183,5.007181060951707
22.6575300693512,17.68037700000002,-6.343113476341248
22.6575300693512,6.483116000000024,11.506319828598588
22.673064947128296,-22.92745699999999,0.4202424382709857
22.673064947128296,-6.498076999999995,-9.935808843157169
22.673757076263428,18.74624800000001,-7.987252310082297
22.673757076263428,14.654798,10.602859386010635
22.68740010261536,-26.77955399999999,4.395010760547912
22.68740010261536,1.916698000000025,16.64027182781126
22.70305299758911,19.827079000000023,4.108443047534125
22.70305299758911,0.173905000000019,-1.7565992991249346
22.703798055648804,-27.942662999999985,-1.0229555767016336
22.703798055648804,5.540661,13.797400587104775
22.71746397018433,16.102139000000022,-1.9829057154358587
22.71746397018433,8.128672000000023,1.8720510509772448
22.733113050460812,-19.93927699999999,-6.145397105630188
22.733113050460812,4.085840000000019,14.397281624621794
22.733849048614506,16.913697000000013,2.940174331141918
22.733849048614506,6.696290000000005,0.5644911059412427
22.74743103981018,-19.153897999999984,-1.9812609129045384
22.74743103981018,-12.104186999999996,-0.0331015179020219
22.76314902305603,16.76410100000001,11.795839250341391
22.76314902305603,-1.8755599999999788,-6.839002453094228
22.76395797729492,-39.85424399999998,-25.054114510866064
22.76395797729492,-14.434143999999977,-11.670010180834325
22.77747392654419,19.95049600000001,9.822216797491524
22.77747392654419,-5.806194999999974,-15.45940424051292
22.793045043945312,-27.18346299999999,-10.483498677469896
22.793045043945312,-7.41435199999998,-0.1134671912690645
22.79378604888916,4.231696,-1.8851617444809496
22.79378604888916,-3.401438999999982,-5.638954153658688
22.823764085769653,-33.26454099999998,-13.64296903100614
22.823764085769653,-9.792928999999988,0.0140641254898561
22.82443594932556,7.545248000000015,-2.980892088561264
22.82443594932556,-7.208657999999986,-1.2862866173742296
22.825212955474854,-29.532119999999992,-7.681001729227024
22.825212955474854,-10.604486999999978,-0.6713133082948097
22.83735203742981,8.528841,-8.965672037543339
22.83735203742981,-11.131812999999994,-1.7025306620072005
22.853055000305176,-35.30652599999999,-2.449534800538359
22.853055000305176,-16.124578999999983,-7.181448341511562
22.853879928588867,7.014182000000005,-4.455300849923823
22.853879928588867,-19.55032699999998,-7.889997575932602
22.86738896369934,-37.59160499999999,-2.23021919896636
22.86738896369934,-41.66061599999999,-27.735724543556103
22.883327960968018,16.004901000000018,2.098004200254577
22.883327960968018,-5.323747999999995,-7.488416654148857
22.88377904891968,-38.56023899999998,1.2451834024274009
22.88377904891968,-20.67603699999998,-0.3418170507107909
22.89738893508911,15.574813000000006,-0.0385518661735933
22.89738893508911,1.1574990000000014,0.9349815835421592
22.913166046142575,-29.719114999999988,0.8242157946717796
22.913166046142575,-4.927318999999983,5.658262895970031
22.91389799118042,24.54683300000002,-2.9571774280870784
22.91389799118042,7.466710000000006,-3.8364984185960953
22.927417039871216,-20.646117999999987,7.704227946247709
22.927417039871216,-3.711850999999996,4.746942101582658
22.94304609298706,21.17344300000002,-18.379554657595648
22.94304609298706,-1.770842999999985,-14.452637817403328
22.94393110275269,-22.272974999999988,3.844733399053837
22.94393110275269,-0.8059489999999983,-1.375192034133823
22.95734691619873,18.66397000000001,-19.725219136890665
22.95734691619873,1.9204380000000183,-7.376310138881712
22.973114013671875,-19.643824999999996,-6.274267426672477
22.973114013671875,0.6226930000000266,-10.9881404975023
22.974682092666622,18.787387000000024,-10.596760625062942
22.974682092666622,10.31277400000002,2.634007039638501
22.987333059310917,-20.440423999999997,0.5267539110048887
22.987333059310917,-1.0228629999999723,-3.551221878823529
23.00308203697205,34.678222000000005,4.045394550497655
23.00308203697205,3.954944000000012,-3.223383384988024
23.003817081451416,-21.132304999999988,-5.065373357974444
23.003817081451416,-4.216737999999992,-14.652308721962632
23.017514944076535,23.52958000000001,-4.577219837944931
23.017514944076535,11.019615000000016,8.49258297238344
23.03317403793335,-21.285640999999984,-8.443116312544264
23.03317403793335,-2.343047999999982,-6.688012657369778
23.033884048461918,24.314959000000016,1.92102437744466
23.033884048461918,-2.717037999999974,-8.739893720537502
23.04732298851013,-24.21024299999999,-6.038503827299859
23.04732298851013,-3.906325999999978,-5.546197090924922
23.06307291984558,23.469742000000025,-6.365970673043016
23.06307291984558,7.52654800000002,1.7992829686517418
23.06387495994568,-29.812612999999985,-8.285135639633431
23.06387495994568,-3.9175459999999873,-7.053591919439116
23.07752203941345,20.55262000000002,-4.478073195906863
23.07752203941345,-0.3235019999999906,-0.1692498300848166
23.09311604499817,-18.432096999999985,4.903363761018639
23.09311604499817,-3.386479999999977,-2.303993919447324
23.093832969665527,16.621985000000024,-8.18770825525143
23.093832969665527,-2.6646789999999783,-11.393296183888133
23.107549905776978,-21.66711099999999,4.62836362284644
23.107549905776978,-5.260169999999988,-0.6299979161058236
23.12312602996826,18.966902000000005,-6.30846514178177
23.12312602996826,0.2412230000000192,-1.9393333817199352
23.12389302253723,-25.66880399999998,-0.5573209267475789
23.12389302253723,-2.4776839999999822,-3.1607919913798743
23.13819694519043,19.81959900000001,-1.3129756918292586
23.13819694519043,6.60279300000002,8.947102537977013
23.13893795013428,-26.646787999999987,-3.1751633377002726
23.152447938919067,2.853543000000002,6.131334885061437
23.152447938919067,14.555690000000029,-5.672775877321143
23.16818308830261,6.881415000000004,6.7766408472779
23.16818308830261,-33.027056999999985,-16.260469916812134
23.169925928115845,-12.760538999999994,-10.037350552746942
23.169925928115845,19.47739900000002,-1.892505173553424
23.1825749874115,11.780684000000008,11.002066771675675
23.1825749874115,-22.278584999999996,-5.477772031952611
23.198060989379883,13.463639,14.744578218818567
23.198060989379883,34.728711000000004,14.7832485691723
23.19884705543518,-2.681508999999977,-2.4979639070974047
23.19884705543518,-23.29583699999999,-0.5244413703123456
23.212367057800293,-3.949334999999991,-3.5474160363482974
23.212367057800293,25.876367000000016,2.610682435566744
23.22825789451599,6.866456,2.569791973532002
23.22825789451599,-17.21101999999999,4.616363381675029
23.22934508323669,-0.8975759999999866,2.9877073038388704
23.22934508323669,21.93451300000001,1.1662064429069154
23.242361068725582,4.196167000000003,-0.6754843600430682
23.242361068725582,-16.014252,10.77901868211119
23.258135080337524,6.787918000000019,7.686201796889382
23.258135080337524,24.881554000000023,-1.724771883679054
23.258997917175293,0.0336590000000001,-1.9543974561251083
23.258997917175293,-19.64569499999999,9.598294396465617
23.288849115371704,1.1406690000000026,5.651570882806075
23.288849115371704,23.789503000000025,-3.1027613356112624
23.289570093154907,10.198707000000011,6.925039050634618
23.289570093154907,-14.488372999999996,9.285962654942333
23.29031205177307,2.6515890000000013,10.02846503927214
23.29031205177307,24.582362000000018,1.8812699137640865
23.30243396759033,13.87128800000002,5.85202810748136
23.30243396759033,-15.01195899999999,4.050013899850622
23.318010091781616,1.8175910000000213,7.808106902129605
23.318010091781616,30.173512000000017,8.175217700112686
23.319068908691406,10.060330000000022,3.596655614061075
23.319068908691406,-16.88938899999998,2.8112196305924826
23.33238911628723,2.1990610000000004,2.4257109576137204
23.33238911628723,29.343255000000028,10.808346439520296
23.348117113113403,15.774898000000007,14.983579585415786
23.348117113113403,-15.561723999999998,3.6781712208606905
23.34883999824524,15.445786000000028,19.3640308287557
23.34883999824524,29.59008800000001,10.501492534831698
23.36240792274475,8.470873000000012,7.596223598947412
23.36240792274475,-12.711919999999992,9.265655698798083
23.37827205657959,10.572697000000003,12.443245823210816
23.37827205657959,24.21211200000002,0.7381776929360555
23.37904191017151,16.07782900000001,10.297106947551535
23.37904191017151,-20.176760999999985,0.0156791952068857
23.39253807067871,5.598630000000014,9.035405382312046
23.39253807067871,24.59732200000002,2.062512543656013
23.408227920532227,10.120169000000004,6.315114925602269
23.408227920532227,-21.23141299999999,-5.029003896582228
23.408843994140625,-3.605263999999977,-2.6366145315743967
23.408843994140625,20.11692100000002,-4.336651475237535
23.422334909439087,14.305117000000024,9.041133347831986
23.422334909439087,-23.42299399999999,-1.74501794297867
23.43820595741272,-6.87767599999998,-4.642845903038055
23.43820595741272,23.710965000000016,2.369789808514234
23.438894033432007,11.174821000000009,7.423505443295584
23.438894033432007,-7.274105999999989,17.00729778638682
23.452399969100952,11.283278000000024,21.31746058126253
23.452399969100952,22.58899500000001,9.434801281824871
23.468197107315063,6.660761000000008,-0.1134944488286198
23.468197107315063,-13.358922999999976,8.888018809413762
23.46888494491577,9.66390100000001,16.298747365439056
23.46888494491577,22.596475000000027,5.014539211001377
23.48241496086121,17.543870000000027,10.962771619159774
23.48241496086121,-18.011358999999985,3.2670898133636825
23.49807596206665,13.501038000000024,20.50398173818733
23.49807596206665,26.706625000000003,4.292471287602936
23.49883389472961,12.091096000000022,3.465510088314465
23.49883389472961,-12.764278999999988,9.973748566397152
23.512519121170044,5.20968000000002,9.9790723854944
23.512519121170044,28.326002000000017,8.719011126603085
23.528121948242188,14.985779000000008,4.020913684312932
23.528121948242188,-11.148641999999995,8.638105534989744
23.52878999710083,-1.0434329999999932,2.294428900947912
23.52878999710083,24.63098100000002,3.3270716891965044
23.542365074157715,10.411881000000022,7.051649848986666
23.542365074157715,-15.748718999999994,7.272411461465946
23.558145999908447,-22.626394999999988,-15.686739916093307
23.558145999908447,-12.704440999999974,-29.652272544225145
23.558861017227173,-34.07796899999998,-38.57955432344709
23.558861017227173,-44.42627199999998,-24.791932392679964
23.572420120239254,-17.85428299999998,-8.783075031674828
23.572420120239254,18.606002000000014,17.236621328833774
23.588212966918945,21.261331000000013,21.15207834150644
23.588212966918945,10.467980000000011,12.545431608365504
23.588881969451904,18.64340100000001,15.3366904801916
23.588881969451904,38.46861000000001,21.797857002008318
23.602411031723022,14.854882000000003,2.168907951963714
23.602411031723022,-24.709518999999982,-16.364886166413815
23.61803293228149,-4.095191,0.7295155712428247
23.61803293228149,21.792397000000022,9.185096774900153
23.619091033935547,5.8866020000000105,-1.157219014595961
23.619091033935547,-8.983239999999995,4.305731283147537
23.632416009902958,1.215467000000018,9.690820865584364
23.632416009902958,19.619515000000007,16.913536643770325
23.64792490005493,-2.9096429999999884,-5.678143035982437
23.64792490005493,-5.415375999999981,2.4626905767555085
23.66312313079834,16.851989000000003,16.174890943958324
23.66312313079834,7.816390000000013,-0.4861142932740065
23.663823127746586,5.912781000000024,9.972479022577556
23.663823127746586,-7.69297499999999,11.009947825137708
23.678141117095947,10.251065000000011,16.31439835002069
23.678141117095947,17.289557000000002,2.369078792880927
23.678777933120728,12.07613600000002,12.936258707879812
23.678777933120728,-3.4369689999999764,8.93720742692146
23.692503929138184,9.63024200000001,13.573379183946871
23.692503929138184,7.102070000000026,0.0223380335029057
23.7081151008606,19.94862600000002,25.08023115670473
23.7081151008606,-0.8227779999999996,4.348345372101564
23.70881509780884,5.392935000000023,10.761099885748289
23.70881509780884,14.09568200000001,8.771499743839993
23.72253489494324,-3.3060720000000003,-2.929763735665883
23.72253489494324,-6.600923999999992,2.2751183138527526
23.73810195922852,5.291958000000022,8.347779364575356
23.73810195922852,7.63313500000001,-1.3778112032392509
23.738863945007324,1.0808310000000176,1.3607320262544116
23.738863945007324,-5.688387999999975,8.1903429615705
23.75240802764893,-0.9087959999999952,1.7384410842748117
23.75240802764893,2.015806000000026,-6.530229616510335
23.76805305480957,-2.494513999999981,-2.190359436323345
23.76805305480957,1.1780680000000243,14.680190963427636
23.768934965133667,-3.4781069999999943,1.291570079077866
23.768934965133667,2.801185000000004,-5.3818841198477525
23.782439947128296,-0.93497499999998,-1.141334221507234
23.782439947128296,-6.627102999999977,9.137831865274425
23.79809308052063,-6.384009999999989,-2.3235706389731767
23.79809308052063,-4.551458999999994,-13.23894654080993
23.79877805709839,-0.7629399999999862,2.357786592304538
23.79877805709839,-14.667887999999977,2.3633013386320734
23.81259298324585,-6.346610999999996,-1.4320690842787656
23.81259298324585,-2.872243999999995,-15.401500169242649
23.827847957611084,-4.648695999999973,-5.100170603211782
23.827847957611084,-12.682000999999984,1.0717641395633386
23.8430769443512,-9.06925799999999,-3.144960677504196
23.8430769443512,-9.936915,-16.31933813425259
23.843820095062256,-8.672827999999981,-7.570328833497249
23.843820095062256,-9.129095999999976,5.352020710636039
23.858127117156982,-5.4976529999999855,5.113229987322317
23.858127117156982,-2.9433019999999885,-3.5391722015832454
23.858865976333615,-9.850896999999977,-8.6779834250336
23.858865976333615,-2.419715999999994,10.964049031114415
23.872416973114014,0.7778990000000192,3.296408699086459
23.872416973114014,2.348657000000003,-3.926015530912162
23.88821506500244,5.063824000000011,0.5836365053434216
23.88821506500244,-3.2686729999999784,3.658181218115871
23.888875007629395,5.654728000000006,5.339783703438124
23.888875007629395,10.737252000000012,0.5338288942689644
23.902449131011963,11.80686400000002,5.629245981078972
23.902449131011963,0.9536740000000066,1.0797715796206253
23.91807794570923,3.298591000000016,0.9596713333493048
23.91807794570923,14.742685000000025,1.8240978128324168
23.918937921524048,14.664147000000014,6.658210014546249
23.918937921524048,-10.84944999999999,-9.929252328957164
23.932425022125244,8.392335000000003,4.133550235030469
23.932425022125244,18.280631,7.184681437955774
23.948081016540527,11.66100800000001,7.328106816655563
23.948081016540527,-2.80866499999999,-2.0632125987969685
23.948760986328125,8.811204000000004,6.222909327789829
23.948760986328125,6.2269330000000025,-5.460058839202086
23.96238899230957,7.595736000000016,3.0511117177293032
23.96238899230957,-2.045725999999973,-0.901062562976232
23.978029012680054,2.614190000000008,0.7396334307010557
23.978029012680054,9.465686000000003,-2.920724602242608
23.9788510799408,2.51321200000001,-5.16833172076646
23.9788510799408,-13.07095099999998,-7.088350987595879
23.992387056350708,-6.230673999999993,-7.849221390560039
23.992387056350708,4.581377000000003,-5.744479816105969
24.00805711746216,4.989026000000024,-0.8665968693977861
24.00805711746216,-5.621069999999975,5.577212510676064
24.008956909179688,-4.080230999999998,0.0675507710382241
24.008956909179688,-0.1570759999999893,-9.47670839306321
24.022619009017944,-1.997107,-5.525452293016189
24.022619009017944,-5.905301999999978,3.577580314860281
24.038126945495605,-4.745933999999977,-0.3713754781157199
24.038126945495605,10.55399700000001,-0.6210945220901696
24.038918018341064,4.192427000000009,0.3504045558195199
24.038918018341064,-0.0822779999999738,15.50133131269349
24.052474975585938,-6.174574999999976,-2.2043504212329736
24.052474975585938,-2.958260999999993,-15.120118428095754
24.06803798675537,0.7965980000000172,-6.199543039433639
24.06803798675537,-7.505979999999994,0.5869376420330852
24.06895399093628,2.947041000000013,4.805409845601031
24.06895399093628,7.827610000000021,-6.457089900484942
24.082485914230347,-0.8676569999999799,-6.255194110927712
24.082485914230347,1.4772600000000011,7.287378251475356
24.098040103912357,-0.186994999999996,4.988436454493641
24.098040103912357,8.728926000000001,2.5964876536745187
24.09890198707581,3.0293180000000177,-6.1743543903487765
24.09890198707581,-9.480646999999976,-0.1850296118219709
24.115428924560547,0.5871640000000014,6.284734632879487
24.115428924560547,13.463639,4.652779338150321
24.1281259059906,9.74243900000002,0.4598442939194331
24.1281259059906,-6.84401699999998,0.2674723072655336
24.12884998321533,1.3725430000000074,10.30733803792599
24.12884998321533,13.112089000000026,2.238666283757123
24.143206119537357,6.600923000000023,0.5795997294793391
24.143206119537357,5.561231000000021,13.977180186424963
24.143959999084476,-2.786225999999999,1.7833771375156031
24.15751600265503,3.8670560000000194,-4.761583195427118
24.15751600265503,3.840877000000006,-5.371660945505575
24.173141956329346,-7.913628999999986,-0.1040850874108327
24.173141956329346,-2.9358219999999733,2.226386701857466
24.17388892173767,2.939561000000026,-8.226772118494804
24.17388892173767,1.1892880000000048,-4.772818919596749
24.187520027160645,3.167695000000009,9.662966689573068
24.187520027160645,1.6118960000000015,5.724079491086277
24.20314693450928,13.38510100000002,8.347450083062624
24.20314693450928,10.067810000000009,7.692627625836821
24.20381498336792,-16.380761999999976,-7.1999347554016
24.20381498336792,-3.945594999999997,-1.6869066769038883
24.21899104118347,6.780438000000004,-0.1783285811448607
24.21899104118347,-4.663655999999975,-4.448303283572001
24.2333619594574,-14.34625699999998,-8.475736359613322
24.2333619594574,-2.632889999999975,-1.7269928491780195
24.233904123306274,2.157922000000013,-3.350621082414177
24.233904123306274,-8.246479999999991,-9.046756270878362
24.247431993484497,-13.878768999999975,-7.0909840563603
24.247431993484497,-15.93571399999999,-13.35152759279154
24.263166904449463,-4.543978999999979,-11.238312056270413
24.263166904449463,-4.917968999999999,-7.846529794300567
24.263808965682983,-12.68574099999998,-11.037722609404046
24.263808965682983,-17.03524499999999,-16.226750250779993
24.277395963668823,-0.583424999999977,-9.502645619554528
24.277395963668823,-9.031858999999995,-10.563599206893208
24.29321599006653,-15.479445999999996,-9.479279174087576
24.29321599006653,-7.0908509999999865,-4.6950347675537065
24.29384708404541,-2.1691419999999937,-5.041357839978851
24.29384708404541,-8.025825999999995,-11.768338066220307
24.3074209690094,-12.42768799999999,-4.871329791095533
24.3074209690094,-12.453866999999974,-11.621275394641296
24.32309103012085,1.4884800000000098,-8.977251218348432
24.32309103012085,-11.799384999999972,-14.814410724207228
24.323771953582764,-15.931973999999997,-8.952286992480557
24.323771953582764,-13.00363299999998,-13.329609749339742
24.337471961975098,-2.479553999999979,-10.928721953535687
24.337471961975098,-14.428533999999985,-17.55097864033977
24.35322093963623,-20.02342499999999,-13.512846905338046
24.35322093963623,-6.61962299999999,-9.116436224010046
24.353914976119995,-3.384609999999981,-10.51925193905399
24.353914976119995,-2.273859999999985,-4.375085633412252
24.36749505996704,-11.197260999999996,-3.613082380946509
24.36749505996704,-18.89771499999999,-14.513446576167064
24.39953303337097,-8.295098999999993,-14.15494379069166
24.39953303337097,-9.862116999999984,-11.813007524212138
24.400279998779297,-14.357475999999991,-7.221229135682047
24.400279998779297,-11.866702999999973,-12.872660329224118
24.401067972183228,-5.968880999999982,-11.780040892644037
24.401067972183228,0.317891000000003,-1.2266240186332076
24.40176606178284,-11.941500999999988,-6.042495583390463
24.40176606178284,-7.113289999999978,-3.966444734960967
24.4126250743866,-1.335144999999983,-4.966453394942645
24.4126250743866,-13.919907999999992,-11.812770605422928
24.42756509780884,-4.405602999999985,2.724445502370733
24.42756509780884,0.3852090000000032,2.5642927728974687
24.4430730342865,7.311504000000013,3.0321702951904657
24.4430730342865,4.704794000000021,1.0835323556399512
24.44389009475708,-0.1570759999999893,4.845194758681364
24.44389009475708,0.5123660000000143,0.9266168178310548
24.457480907440186,15.658961000000003,8.0167435886361
24.457480907440186,12.132235000000009,14.950979578517469
24.47296690940857,0.2505730000000028,3.565413625467396
24.47296690940857,-4.521539999999988,-4.913382558272551
24.48816394805908,6.754259000000019,-2.550642291621852
24.48816394805908,9.188934000000016,4.133638805383768
24.48890590667725,-4.873089999999991,-1.378665125014503
24.48890590667725,2.3523970000000247,-3.1170897095461143
24.50304698944092,12.756798000000003,4.554887886139106
24.50304698944092,2.636629000000028,0.9045679504969328
24.503977060317997,-10.034151999999978,-4.066982607304275
24.503977060317997,-9.753659999999996,-8.829803911336441
24.517570972442627,-8.29883799999999,-15.849289378475635
24.517570972442627,-12.932574999999986,-11.419481549929449
24.533128023147583,-38.75658399999999,-28.09815898104101
24.533128023147583,-25.120907999999982,-22.557389556647543
24.533776998519897,-8.167941999999982,-12.795772537328457
24.533776998519897,-5.015205999999978,3.4814874998630554
24.547560930252075,9.963093000000017,26.94489252795214
24.547560930252075,26.02970300000001,23.09082128394024
24.563196897506717,29.593828,11.617284901390317
24.563196897506717,14.237799000000024,9.662229473398376
24.56389307975769,-1.0808319999999867,-1.388378253018265
24.56389307975769,1.256606000000005,-8.764904339364476
24.577433109283447,9.170234000000022,-4.381606958014146
24.577433109283447,-5.617329999999981,-3.946893844360179
24.593228101730347,-7.285325999999998,1.2146534289547937
24.593228101730347,-1.911088999999976,-2.9797741201086825
24.59392499923706,11.967679000000004,7.4437760460132605
24.59392499923706,4.009172000000007,10.354711914062069
24.60733795166016,-8.336236999999983,2.0737007198062845
24.60733795166016,-3.56412499999999,-6.675677846389212
24.62320590019226,3.818437000000017,-3.459295009602906
24.62320590019226,-2.101823999999993,2.306837009169077
24.623939990997314,-8.141762999999997,5.309945504806464
24.623939990997314,-0.2692729999999983,4.673954111859399
24.65174889564514,4.263485000000003,1.2349858710433437
24.65174889564514,4.502839000000023,5.23508641125405
24.65962100028992,-8.014605999999986,-0.1780435656570915
24.65962100028992,-3.4781069999999943,-3.903299414209622
24.659848928451535,6.630842000000001,0.1635098304219449
24.659848928451535,0.3964290000000119,-1.1022825882084852
24.667524099349976,-20.187979999999985,-14.59576741913774
24.667524099349976,-5.449034999999981,-4.307978430247735
24.68306398391724,2.861023000000017,-6.143164023264196
24.68306398391724,-14.226579999999984,-17.04950955535587
24.68390202522278,-23.00038499999998,-14.402889067111602
24.68390202522278,0.6881410000000017,2.8991470276699776
24.69740891456604,8.833643000000023,-0.0272411425580756
24.69740891456604,-2.4421549999999854,0.1040954610318851
24.72126793861389,-8.26517899999999,3.967078060789394
24.72126793861389,-6.3391309999999805,-4.578811871469003
24.721923112869263,3.306071000000003,-1.3589277492050966
24.721923112869263,-10.11642999999998,-7.543389376648466
24.72737598419189,-13.545918,-5.410277341165742
24.72737598419189,-5.66220899999999,-3.8451281290683466
24.74310302734375,-6.428887999999972,-11.280652863507662
24.74310302734375,-11.313198,-9.96607791602522
24.743830919265747,-8.998199999999997,1.6255762188234488
24.743830919265747,-5.280738999999983,-3.014449273391378
24.7573299407959,-2.5206929999999943,-3.863512035891831
24.7573299407959,-7.479799999999983,-3.4768011600928954
24.773590087890625,-19.49983899999998,-7.436242326621102
24.773590087890625,-17.26711899999998,-10.519557013380163
24.775564908981323,-9.484386999999998,-7.1467974807110055
24.775564908981323,-14.432273999999978,-9.669162540307305
24.78743004798889,-25.147087999999982,-12.43330841090802
24.78743004798889,-23.87552199999999,-10.758834340051642
24.803101062774655,3.702500000000015,9.660812124838248
24.803101062774655,-17.11752299999999,-9.40531588456912
24.80383610725403,-14.013405999999977,5.048614923537411
24.80383610725403,-11.47027399999999,0.903877433439094
24.81794500350952,6.941254000000015,9.248430200487874
24.81794500350952,-2.1130439999999737,3.668903312165444
24.83308506011963,-21.70637999999998,-8.258120042836158
24.83308506011963,-1.054651999999976,5.994928563008994
24.833801984786987,1.5296190000000252,-5.339961703979382
24.833801984786987,-2.303778999999992,-1.6372665947942222
24.86376190185547,-16.369542999999993,-7.772618150399696
24.86376190185547,2.5019930000000272,4.344872130855027
24.86446595191956,22.648834000000026,11.429774858506304
24.86446595191956,2.8498030000000085,-0.742383212450223
24.865283966064453,-9.129095999999976,-1.9357816044187943
24.865283966064453,11.44409300000001,9.700781911751053
24.8774209022522,16.721092000000027,2.239830303425192
24.8774209022522,8.571850000000012,5.412905723400705
24.893172025680546,-2.232720999999998,2.087971572679753
24.893172025680546,0.59838400000001,-4.193307174401548
24.89382791519165,22.929326000000003,7.247582063860795
24.89382791519165,13.587056000000018,10.821686322217234
24.90756392478943,-7.86126999999999,3.0579383888354315
24.90756392478943,-10.022931999999996,-9.477055394964088
24.923101902008057,22.895667000000003,9.54814741488886
24.923101902008057,10.19496700000002,4.594945841704549
24.9237699508667,-3.0891579999999976,8.265734600615765
24.9237699508667,-0.5348059999999748,2.0002524086236564
24.945593118667603,21.470765,10.86553218690048
24.945593118667603,16.851989000000003,15.539003787991064
24.953073978424072,-6.096036999999996,4.099172682663784
24.953073978424072,2.419715000000025,12.74359114980866
24.95382595062256,15.666440000000025,3.276355060770758
24.95382595062256,7.700454000000008,3.900493591775957
24.967456102371216,-11.10750299999998,4.144243352505551
24.967456102371216,-0.1421169999999847,5.927129579150815
24.983202934265137,17.297037000000017,-0.0255952443968361
24.983202934265137,22.24866400000002,10.150831301030475
24.983805894851685,-9.196413999999976,4.786780437224067
24.983805894851685,20.072043000000008,26.90961014238652
24.99743795394897,21.452066,9.538187232421556
24.99743795394897,3.025579000000022,-2.3925665489241403
25.01316809654236,-2.718907999999999,5.525416933725172
25.01316809654236,0.7554590000000019,0.8320207031773021
25.01380205154419,20.868641000000025,6.501600614141873
25.01380205154419,7.595736000000016,3.852037108768004
25.050194025039676,-4.125109999999978,11.311135547427952
25.050194025039676,-5.606110999999999,4.1164968768013175
25.05026912689209,14.634228000000007,2.7357906891591703
25.05026912689209,-2.80866499999999,-10.803851498557552
25.05038690567017,-20.049603999999988,-12.15890491503578
25.05038690567017,-6.83653799999999,-3.315967673234528
25.05764412879944,13.411281000000002,2.071184879249401
25.05764412879944,1.6044170000000122,-8.003089682546136
25.073097944259644,-13.519738999999989,-3.255105938619936
25.073097944259644,3.2611920000000225,10.55740729983542
25.073836088180546,20.072043000000008,5.271815159075434
25.073836088180546,10.067810000000009,4.140497592687628
25.087366104125977,-11.462793999999974,0.4269335174060007
25.087366104125977,-2.950781999999976,2.100461933547616
25.103116035461422,17.068903000000006,1.3288136407618634
25.103116035461422,17.663547000000023,8.307873600209598
25.10383892059326,-8.321277999999978,3.650254898938746
25.10383892059326,-3.915675999999991,-0.1529374873481326
25.11799907684326,16.433120000000002,4.092870934392643
25.11799907684326,5.490173000000027,-1.169793366745961
25.133098125457764,-8.328757999999993,4.532738071196869
25.133098125457764,-5.333097999999978,-5.7156155925713925
25.13379907608032,23.497791000000007,2.412010464702238
25.13379907608032,7.019792000000024,-0.4554463235585295
25.14812111854553,-12.842816999999997,0.0578430740771942
25.14812111854553,5.24333900000002,2.964466809804958
25.148831129074097,18.166564000000022,1.275134723792359
25.162413120269772,3.446317000000022,1.616355152874983
25.162413120269772,-5.903432999999978,4.915839694868726
25.17815494537353,0.3609000000000151,-3.6193749206336254
25.17815494537353,14.916591000000013,2.708824545627881
25.178777933120728,-0.7947289999999896,-2.2470324805419506
25.178777933120728,-19.497968999999983,-10.837315054147496
25.19247007369995,-0.686271999999974,-2.838175673015636
25.19247007369995,19.355852000000027,5.182377822423009
25.208142042160038,10.86627900000002,9.079746300903922
25.208142042160038,-16.569626999999997,-7.607792634818434
25.20881700515747,-0.1178069999999991,-0.1299597151423079
25.20881700515747,12.470696000000004,-1.119390243297138
25.222434997558597,5.028295000000014,0.9870867451041824
25.222434997558597,-7.141338999999988,-0.1196922953307186
25.238120079040527,-2.1710119999999904,0.2112134030168944
25.238120079040527,9.516175000000004,1.0772838092304085
25.238765001297,13.046641000000022,4.456192647952468
25.238765001297,-14.808133999999995,-7.237783717537289
25.252437114715576,-1.4753909999999737,8.116921623861622
25.252437114715576,11.965809000000007,2.11277169702956
25.26812505722046,7.100200000000001,-0.2563408520005179
25.26812505722046,-8.427864999999997,2.998907569898389
25.268737077713013,-5.424724999999995,0.6849234965692599
25.268737077713013,12.19394300000002,0.2376677607761657
25.282439947128296,10.49602900000002,0.4899726976162242
25.282439947128296,-8.68965799999998,2.424885205585884
25.29816198348999,-11.330026999999973,-3.303744641305089
25.29816198348999,17.111912000000018,4.738755674226626
25.298773050308228,13.375752000000006,2.266793974227401
25.298773050308228,-10.896198999999996,2.2044502162061974
25.312535047531128,-3.105986999999999,5.986100030299095
25.312535047531128,24.06064600000002,9.303196772295774
25.32819008827209,14.183570000000003,4.6150771560140935
25.32819008827209,-9.860246999999989,2.928310235128192
25.329397916793823,-9.20950399999998,-3.897657143412568
25.329397916793823,14.867972000000009,-2.034314394662143
25.353091955184937,1.7222230000000138,-7.316193521174421
25.353091955184937,-8.581200999999993,3.047004027422881
25.35814094543457,5.84733300000002,7.909004234179843
25.35814094543457,15.223262000000004,1.566379148130551
25.358886003494263,3.0199690000000032,-4.287695858438229
25.358886003494263,-11.027094999999974,-1.7267228250399338
25.372545957565308,-3.820307999999983,-2.980087294900997
25.372545957565308,11.72271600000002,-2.237180112972176
25.388102054595947,10.193097000000025,8.883866019020338
25.388102054595947,-21.771827999999985,-10.041793283838343
25.388904094696045,-1.0752219999999966,8.016372391278809
25.388904094696045,20.698476000000028,12.483235613388487
25.402508020401,11.30384700000002,8.03973419588976
25.402508020401,-3.1508659999999797,8.216180564265722
25.41815996170044,11.109372000000008,11.401001973840122
25.41815996170044,29.883670000000023,17.778031214189937
25.41925811767578,15.563593000000026,13.825263460496274
25.41925811767578,-6.539215999999982,2.576513329913148
25.43250203132629,4.201777000000021,3.630396785421451
25.43250203132629,16.135798000000023,5.45525554360573
25.44818091392517,10.510988000000026,6.27186096140039
25.44818091392517,-3.180784999999986,4.477582328861901
25.448792934417725,6.98800300000002,7.51254834188739
25.448792934417725,30.186602000000025,14.712851114356983
25.462491989135746,15.25318200000001,5.548389002506701
25.462491989135746,-9.336660999999992,1.698321319232491
25.478172063827515,6.819707000000022,10.675064183072854
25.478172063827515,11.019615000000016,-1.3416065887920148
25.478797912597656,-8.693397999999974,-8.479008336653692
25.478797912597656,-36.88476399999999,-19.547368532636742
25.50893211364746,-13.996575999999976,-7.226594527845247
25.50893211364746,-5.727656999999994,-19.02815794602062
25.50952911376953,0.944324000000023,5.804727442621534
25.50952911376953,-4.822600999999992,24.637433995764376
25.51037907600403,21.169703000000027,28.23683636003957
25.51037907600403,37.516806,11.438484164217517
25.52267408370972,23.918530000000004,8.628899723431996
25.52267408370972,2.1859710000000234,8.157408088087195
25.538279056549072,2.043855000000008,-11.361662273474831
25.538279056549072,24.255121000000003,-3.75753588082118
25.538939952850345,15.043747000000025,7.789628212922999
25.538939952850345,-9.18706499999999,3.976584848840808
25.552791118621823,8.779415,7.847690201339958
25.552791118621823,20.66855700000002,4.086382461174264
25.56829309463501,6.804748000000018,8.117257928439345
25.56829309463501,-10.473589999999971,7.7641527157357615
25.569061040878296,0.4132580000000132,-1.635432518424659
25.569061040878296,17.818753000000015,-1.8596958971386288
25.59906506538391,9.097306000000003,5.15972416729757
25.59906506538391,-11.932150999999976,0.5101935261080115
25.599682092666622,11.939630000000022,16.15442158005699
25.599682092666622,27.931442000000004,17.517570550551255
25.600414037704468,16.08717900000002,14.533677557579306
25.600414037704468,-7.795821999999987,0.1042161409487238
25.61253499984741,9.564794000000006,8.09263429013752
25.61253499984741,26.09889100000001,17.757934573092736
25.62821793556213,14.168611000000029,13.700511674124506
25.62821793556213,-13.03168199999999,-3.0462345964869595
25.62954092025757,-2.3991459999999734,-1.831967413814164
25.62954092025757,21.222062000000022,10.195462618852709
25.64243698120117,7.115159000000006,6.819763330887718
25.64243698120117,-5.338707999999997,5.434533338103609
25.658152103424072,2.4365440000000262,2.8737817055081014
25.658152103424072,19.838299000000006,8.053284072028184
25.65892195701599,2.1223930000000166,-1.338794672100461
25.65892195701599,-17.433543999999983,-5.3933013986153
25.672450065612797,-5.544401999999991,-4.50478815730589
25.672450065612797,15.784247000000022,2.162434629356971
25.688201904296875,11.569380000000024,13.251885651463368
25.688201904296875,-10.798961999999989,3.2782097249243485
25.689040899276733,-4.99089699999999,-2.7889605410942453
25.689040899276733,13.947956000000003,-2.1714114973642005
25.70243000984192,2.197191000000004,-1.6010376208515966
25.70243000984192,-5.189111999999994,14.144227787728152
25.718179941177368,0.6152130000000113,6.487678807858089
25.718179941177368,17.71403600000002,5.942299983247567
25.71891212463379,1.4903500000000065,1.880163465842104
25.71891212463379,-18.757468999999983,-0.8651982826445135
25.732563972473145,-0.7835099999999784,6.2981087546125005
25.732563972473145,16.173197000000016,-0.2706866102518752
25.748526096343998,9.130965000000003,8.154439466656154
25.748526096343998,-12.257522999999992,5.234842479785975
25.74887990951538,1.785802000000018,4.397327088464089
25.74887990951538,10.316514000000012,0.383687368014268
25.762414932250977,-2.242069999999984,1.051660870289031
25.762414932250977,-23.51088199999998,-4.0815911852767215
25.777936935424805,-5.862293999999992,3.7888497756348265
25.777936935424805,20.784494000000024,8.243793244625783
25.793159008026123,1.5165290000000198,5.671494299513979
25.793159008026123,-14.50894199999999,3.462357558558576
25.793941020965576,-3.625833,3.3180648102718786
25.793941020965576,13.951696000000029,4.629016050434405
25.808223009109497,2.750696000000005,0.6337688055195834
25.808223009109497,-13.581446999999995,-1.8010278050948276
25.8088800907135,0.1252860000000168,-2.7310855033540378
25.8088800907135,19.105278000000027,1.7621966013411663
25.822593927383423,5.738876000000005,-2.9753318735434995
25.822593927383423,-8.117452999999983,-2.249008420803573
25.83849000930786,7.56020700000002,1.8434494449540093
25.83849000930786,34.992373000000015,11.39239633259379
25.838932991027832,19.557806000000028,10.38369172447527
25.838932991027832,1.3669330000000173,12.948869753537142
25.852452039718628,6.576614000000006,3.1546085114543043
25.852452039718628,26.996467000000024,3.947969642669708
25.868160009384155,21.52873400000001,10.152024396227858
25.868160009384155,-8.031435999999985,-5.498962482256456
25.86879801750183,-0.3048019999999951,-1.153491902592699
25.86879801750183,14.92407,-5.553892156750287
25.88247299194336,2.7544360000000268,-10.780098585043069
25.88247299194336,-2.915251999999981,8.06236617293558
25.898211002349854,0.2225240000000212,-0.167692158958983
25.898211002349854,29.68545500000002,8.536057374093403
25.89883708953857,7.088980000000021,-4.361847631492395
25.89883708953857,-2.257029999999986,10.69831642296652
25.912447929382324,10.585786000000011,10.807409304800688
25.912447929382324,22.927456000000006,4.394841312987445
25.92820405960083,10.410011000000026,-1.925868826585173
25.92820405960083,-0.6974919999999827,6.654058939395481
25.92918491363525,1.782062000000025,1.9353869881005836
25.92918491363525,12.93070400000002,-7.060467877301626
25.942513942718502,-6.935644999999994,-20.09267726740595
25.942513942718502,-10.04350199999999,2.8154604897716133
25.95797109603882,11.591819000000015,12.53731713570706
25.95797109603882,23.346325000000007,1.1367342441119774
25.97311496734619,10.23423600000001,3.825863693393988
25.97311496734619,-9.875205999999991,2.130783690393269
25.97390103340149,2.010196000000008,1.0854155535213548
25.97390103340149,14.849272000000012,-4.678094919983266
25.988086938858032,5.697737000000018,-0.6330079545453859
25.988086938858032,-7.216136999999975,0.7125272943543912
25.988889932632446,-1.7446640000000002,-4.255511257457619
25.988889932632446,15.111065000000025,-3.284840890418017
26.002475023269653,2.1223930000000166,-2.0232186621523045
26.002475023269653,-16.016121999999996,-4.693743203577039
26.018129110336304,-1.4155529999999883,-4.736287394544144
26.018129110336304,9.250642000000028,-10.905289691584889
26.018862009048465,-3.4650179999999864,-12.289815689683875
26.018862009048465,-3.625833,5.131074784160351
26.03243494033813,-4.179338999999999,-5.632153513445428
26.03243494033813,8.62233900000001,-4.641348154508439
26.0479109287262,-1.8456410000000003,-11.469777263121935
26.0479109287262,-16.083439999999996,-6.81946184804216
26.06319093704224,2.6833780000000047,5.924675615175009
26.06319093704224,14.097552000000007,-1.103230718891517
26.063875913619995,16.816460000000006,13.24511676963788
26.063875913619995,-11.659138999999982,-3.6350326595271394
26.0784170627594,2.1149130000000014,6.239188011475342
26.0784170627594,18.723809000000017,3.311971130476284
26.07890200614929,17.57191900000001,9.546458231442449
26.07890200614929,-5.372366999999997,8.77804879191378
26.09242796897888,6.049288000000018,9.94670248164897
26.09242796897888,31.97053400000001,12.11127693770722
26.1081280708313,10.683024000000016,1.2044071223165282
26.1081280708313,-4.661785999999978,8.65643843073418
26.108942985534668,-2.717037999999974,-3.8710094418720233
26.108942985534668,26.31580600000001,4.512647598993468
26.122478008270264,21.255721000000023,13.696390314779284
26.122478008270264,-8.319407999999981,2.4648531696072844
26.13835310935974,3.97364300000001,1.6762569698113396
26.13835310935974,23.12567100000001,6.214229095065164
26.138797998428345,6.273682000000008,-1.481556273054876
26.138797998428345,-9.089826999999984,3.421786960503713
26.153194904327396,3.68193100000002,2.031808963821093
26.153194904327396,19.47926800000002,5.148388872945915
26.15381503105164,11.988249000000025,10.152837159234869
26.16760396957397,-5.738876999999974,7.490876671856107
26.16760396957397,1.0901800000000037,8.49151061201796
26.18319296836853,14.250888000000003,3.0034330566884115
26.18319296836853,1.4978290000000245,-3.192580604803707
26.183852910995483,-10.50350899999998,-1.973983254252385
26.183852910995483,7.638745,13.029760751489809
26.197436094284058,17.542,4.617926717010583
26.197436094284058,6.853366000000023,1.999449164170258
26.21318507194519,-10.948557999999991,-1.4870131636665906
26.21318507194519,0.3010610000000042,7.020489416186359
26.21387791633606,21.188403000000022,10.137012359758964
26.21387791633606,13.772181000000018,10.78729159167808
26.22770595550537,-8.27078899999998,5.431638041298736
26.22770595550537,6.9281640000000095,13.339659202091443
26.243163108825684,16.434990000000028,3.977322575434005
26.243163108825684,8.611119000000002,0.9541762343133228
26.24380898475647,-11.902231999999998,0.7368121844111091
26.24380898475647,5.353666000000004,8.839236695191179
26.25758099555969,17.209149000000025,5.002946285368367
26.25758099555969,5.74635600000002,4.62020215644541
26.27321696281433,-7.541508999999991,4.807570933872022
26.27321696281433,7.369472000000002,9.529740672378756
26.273884057998657,26.330765000000014,15.899509329580797
26.273884057998657,0.9106650000000228,-4.602949840503451
26.28754997253418,-16.786541,-3.0457690788036285
26.28754997253418,-0.1739059999999881,-0.4163636901918708
26.30311894416809,17.758914000000004,5.926203379778643
26.30311894416809,-1.0228629999999723,-6.864271594839909
26.30383992195129,-9.11974699999999,1.5784021773209975
26.30383992195129,2.1149130000000014,5.9886220507186
26.317481994628903,13.499168000000026,-2.3676665105667904
26.317481994628903,2.6721580000000245,1.5444290185661889
26.33287811279297,-5.907171999999974,5.784698857072579
26.33287811279297,-0.6713129999999978,-0.0537754064321855
26.348119974136356,16.528487000000013,2.525344872653079
26.348119974136356,3.734290000000016,3.456588371001551
26.348872900009155,-21.050026999999982,-4.285043773291108
26.348872900009155,-3.764209999999992,-0.8927628966608832
26.3803551197052,24.53187300000002,6.126498352571936
26.3803551197052,12.616552000000013,12.306893032377497
26.38056707382202,-0.7760299999999916,10.716078656042251
26.38056707382202,7.103939000000025,2.1055008159592274
26.38072609901428,20.612458000000004,-3.572868494602968
26.38072609901428,15.133505000000014,12.14730779195955
26.393160104751587,-6.079207999999994,3.165677305458164
26.393160104751587,0.62643300000002,-4.335639773057099
26.393855094909668,19.63260400000001,1.7290400350063635
26.393855094909668,9.418938000000026,0.6573002507333872
26.407428979873657,-7.915498999999983,1.64654204372102
26.407428979873657,10.96725600000002,6.619956003441626
26.42317795753479,27.598591000000027,5.21318338332679
26.42317795753479,2.743216000000018,-7.503293816039683
26.423859119415283,-6.744909999999976,1.06779538004057
26.423859119415283,-1.108880999999997,-4.82457147846101
26.437460899353027,13.813320000000004,-2.736396708984429
26.437460899353027,-6.516775999999993,-17.65711178516066
26.45321297645569,-22.75916199999999,-13.039837722647956
26.45321297645569,-23.780153999999985,-18.62175036229988
26.453887939453125,-12.53427499999998,-23.175144706239
26.453887939453125,-7.466710999999975,-9.505623572510794
26.467502117156982,-7.137599999999992,21.78272150906018
26.467502117156982,10.956036000000012,20.94941721037151
26.483225107192997,41.798991,16.52933241396169
26.483225107192997,23.417383,3.582614942426865
26.48390007019043,-1.6137669999999955,2.8678595264108786
26.48390007019043,-0.9592849999999942,-9.380419317547974
26.497765064239506,4.781462000000005,-26.544177035185072
26.497765064239506,9.082347000000029,-2.9997364384697
26.51289105415344,-12.066787999999974,4.3258666861033
26.51289105415344,8.091273000000001,11.434484686115052
26.528136014938354,18.39095800000001,-0.745935595178711
26.528136014938354,12.769888000000009,11.10579757452037
26.529356002807617,-9.05990799999998,16.7400397677816
26.529356002807617,-0.6937519999999893,0.8323893904001527
26.543132066726685,23.256567000000015,-5.103073495307008
26.543132066726685,5.993189000000001,-0.1650887867040005
26.543837070465088,-10.712943999999991,6.024962372776134
26.543837070465088,-1.5950679999999977,-0.0044685605602694
26.5575430393219,26.689796,8.511617189401484
26.5575430393219,4.53836800000002,2.645319877776715
26.573652982711792,-2.5450019999999824,13.456400547681142
26.573652982711792,1.7072640000000092,1.0175618925314662
26.574177026748657,11.816213000000005,-2.2410147642642606
26.574177026748657,10.611966000000024,7.931094126769613
26.587512016296387,-3.913805999999994,5.949577420313483
26.587512016296387,4.788941000000023,5.080373947189402
26.61952209472656,19.688703000000004,4.958114244865126
26.61952209472656,3.6108730000000255,2.9837093147568607
26.620306968688965,-7.937937999999974,3.760383874961292
26.620306968688965,0.2300030000000106,4.760314813328643
26.62093496322632,5.559361000000024,-1.8813246058237103
26.62093496322632,2.5599610000000155,-2.3409299605497687
26.621726989746094,-7.339553999999993,4.097910624264443
26.621726989746094,-9.927564999999989,-2.3379694896883283
26.632484912872314,9.987402000000005,0.0328181309905417
26.632484912872314,-10.914897999999994,-18.516602100283706
26.647515058517456,-13.992835999999985,-3.577073104186262
26.647515058517456,-0.6937519999999893,5.3921777549549335
26.665250062942505,8.988849000000016,1.9642698166684145
26.665250062942505,-5.069434999999999,-5.078090432510276
26.665271043777462,-20.13749199999998,-5.60752165319612
26.665271043777462,-11.143031999999977,-4.355659129603754
26.67747592926025,13.858199000000011,5.837985150179071
26.67747592926025,1.0041630000000057,-0.9778930303821988
26.692934036254883,-13.977876999999978,5.33364007065726
26.692934036254883,-5.910911999999996,2.778440910422834
26.708148956298828,8.446564000000023,0.8405742128459419
26.708148956298828,2.1223930000000166,6.52192618375658
26.708887100219727,-15.58977299999998,-1.0584494165975509
26.708887100219727,-14.037714999999992,-4.872885837434184
26.723182916641235,-2.660938999999985,-4.622445066194943
26.723182916641235,-9.710650999999984,-3.301055852607882
26.7239990234375,-22.01866099999998,-4.175642014248272
26.7239990234375,-16.304093999999992,-10.391728167824509
26.73756599426269,7.182477000000006,-1.6950254030451395
26.73756599426269,-7.261015999999984,-5.025123236855078
26.753241062164307,-24.20276299999999,-8.759176538160162
26.753241062164307,-12.414597999999984,-5.441457269348225
26.753966093063354,10.327733000000023,2.7886112481199543
26.753966093063354,2.9563900000000274,3.973379686856938
26.769367933273315,-5.866033999999985,3.976483061149208
26.769367933273315,-0.1851259999999968,0.1845182919247476
26.78330397605896,22.258014000000003,12.489905871742035
26.78330397605896,6.079207000000025,-2.6316783732147453
26.78379511833191,-8.865432999999996,-4.072744419519792
26.78379511833191,3.943724000000003,-1.118622167359808
26.797467947006226,19.946756000000025,-1.777998171634156
26.797467947006226,6.318561000000017,-3.253466272320086
26.813252925872803,-9.609672999999988,-9.73832153036329
26.813252925872803,1.0939200000000255,-5.761908057688285
26.81392002105713,21.854105000000004,4.967405883419918
26.81392002105713,11.93589,-2.895509026947685
26.827537059783936,-7.713543999999985,-9.597746910724492
26.827537059783936,4.845040000000012,0.5900317319384882
26.8433039188385,16.70800300000002,1.4427302167210474
26.8433039188385,4.00730200000001,-4.142200372750413
26.843826055526733,-9.25438299999999,-6.10886406065775
26.843826055526733,-3.487456999999978,-7.825239049742379
26.857553005218502,11.075713000000007,-8.335473595557204
26.857553005218502,6.430758000000026,-1.9386699951828417
26.87325406074524,-16.782801999999975,-11.685233148418602
26.87325406074524,-5.836113999999981,-8.112470672674666
26.873857021331787,13.360792000000004,-2.7391855176772992
26.873857021331787,-3.981123999999994,-10.961999390404134
26.887465953826904,-13.719822999999993,-1.8994780638786768
26.887465953826904,-2.9788309999999854,-1.1438837357707348
26.90384006500244,6.980523000000005,-7.656053102804314
26.90384006500244,-5.682777999999985,-7.502963555700344
26.90486001968384,-25.021800999999986,-13.572324288171677
26.90486001968384,-10.769041999999985,-5.456539911310858
26.91754794120789,16.240515000000016,2.6102449721569165
26.91754794120789,2.096213000000006,-1.3680697158028114
26.933216094970703,-19.84577999999999,-6.038390692689553
26.933216094970703,-10.619445999999982,-7.398679442653706
26.933995962142944,8.626079000000004,-3.964391562989448
26.933995962142944,-0.5217169999999953,-5.012333088016147
26.9475040435791,-17.829973999999993,-0.3520347122631477
26.9475040435791,-1.654905999999983,2.198335601721098
26.963265895843502,19.580246000000017,7.815680303631957
26.963265895843502,-2.144832999999977,-4.684480526507726
26.963906049728397,-14.557560999999993,1.733069392212034
26.963906049728397,-1.153759999999977,2.4934077845529803
26.97754406929016,11.894751000000014,2.9543880863994865
26.97754406929016,4.972197000000023,1.5614773392876655
26.9932119846344,-15.485055999999986,-0.0919555761859758
26.9932119846344,-4.299014999999997,-0.3981656099075339
26.99382710456848,11.101893000000018,-1.1100091776911878
26.99382710456848,-1.2360369999999818,-0.671031244069213
27.007503986358643,-25.16765699999999,-9.195708385209254
27.007503986358643,-8.966410999999994,-10.23578897238049
27.023245096206665,5.675298000000026,-9.698977872331028
27.023245096206665,1.905479000000014,1.6581404811080471
27.023875951766968,-19.808380999999983,-6.743689123382923
27.023875951766968,-13.33835399999998,-12.08648300074107
27.037611961364743,4.714143000000007,-8.425160681019834
27.037611961364743,5.099353000000008,5.159415621338211
27.053333044052124,-16.07595999999998,-8.125497867758689
27.053333044052124,-12.279961999999983,-6.985890312683948
27.053858995437626,5.735136000000011,-8.012625530462824
27.053858995437626,-2.1523129999999924,-6.641796270405179
27.06754994392395,-19.883178999999984,-3.735861968154815
27.06754994392395,-13.158837999999974,-3.973461302418208
27.083322048187256,1.811981000000003,-11.657551075209804
27.083322048187256,-2.855413999999996,-4.185295741141502
27.08387589454651,-21.69328999999999,-5.073544799082224
27.08387589454651,-6.703770999999989,-2.2341755476413407
27.097645044326782,7.410611000000017,-9.112282573591386
27.097645044326782,2.750696000000005,-3.7375467085961054
27.11314296722412,-20.70221699999999,-5.354768386644897
27.11314296722412,-7.979076999999989,-1.121562661673055
27.113919973373413,15.271881000000008,1.0852782869660622
27.113919973373413,-2.290688999999986,-4.864144365469327
27.12753391265869,-20.504001999999986,-2.441810543995455
27.12753391265869,-6.718730999999991,-1.1520799746983863
27.143140077590942,4.92357800000002,-5.354323285209013
27.143140077590942,-4.2840559999999925,-0.5993326738232065
27.143908977508545,-15.215782999999988,-0.8633406652406919
27.143908977508545,-2.687118999999996,-3.3487342056522813
27.157978057861328,13.671204000000015,7.374867266770809
27.157978057861328,6.901985000000025,9.33498058999266
27.173145055770878,-20.507741999999997,-11.07027679034672
27.173895120620728,-4.788941999999992,3.1254996547431366
27.173895120620728,17.893551000000002,10.752960030386475
27.18818712234497,-6.277422999999999,-8.338188242513105
27.18818712234497,-18.821046999999997,-3.6659409385872586
27.1890070438385,-8.162331999999992,-1.0995490380024415
27.1890070438385,22.61704500000002,17.295011218628904
27.202555894851685,1.1238390000000038,-0.9764978589944092
27.202555894851685,-21.69328999999999,-8.08410096109213
27.218167066574097,-10.226756999999992,-3.705215176398698
27.218167066574097,12.044347000000016,4.514141120253409
27.219253063201904,4.586987000000022,3.270832308839259
27.219253063201904,-12.564193999999986,2.405925157530932
27.232640981674194,-5.525702999999993,0.5462427745742415
27.232640981674194,10.275375000000023,1.844713096458756
27.247918128967285,1.9428780000000077,1.8916259525716068
27.247918128967285,-18.555513999999988,-2.539102047346137
27.26313591003418,-4.568287999999996,-0.5718213925864761
27.26313591003418,20.115051000000022,10.763978549485504
27.26387095451355,3.180784000000017,5.552734190924485
27.26387095451355,-15.612212999999995,-1.3912313710394455
27.278183937072757,-1.879299999999972,0.6734029335281404
27.278183937072757,20.762054000000006,3.0343874946676195
27.279024124145508,16.165717,12.241625501935989
27.279024124145508,-17.59435999999998,-1.0830419580967536
27.292469024658203,-6.733689999999996,-3.685577619464606
27.292469024658203,14.105032000000024,-2.7078638259843544
27.30816006660461,9.108526000000012,4.286669784290169
27.30816006660461,-14.609919999999988,-1.6843593442054043
27.30890893936157,3.633312000000018,8.420506456459652
27.30890893936157,19.045440000000013,2.937039845856116
27.32256007194519,4.186818000000017,-1.759488062799238
27.32256007194519,-19.19129699999999,-5.760020997770559
27.3381450176239,-17.048333999999983,-10.952820854929676
27.3381450176239,1.980277000000001,-13.41329535629598
27.338902950286865,-11.468403999999992,-18.111630121531803
27.338902950286865,-39.26333999999999,-15.407368982936347
27.352526903152462,-43.91203599999999,-30.0759394887135
27.352526903152462,-18.701369999999983,-26.00155906425561
27.368160009384155,0.6488720000000114,3.8704464534605623
27.368160009384155,-9.819108,16.871503038505402
27.368868112564087,19.352112000000005,24.282502680023683
27.368868112564087,38.717314000000016,10.434751781181358
27.38256812095642,21.771827,-0.4950148988803846
27.38256812095642,-0.1776459999999815,6.629661208392587
27.398214101791385,-4.257876999999979,-7.561119095878094
27.398214101791385,21.786787000000004,2.412715502577541
27.398845911026,-1.909218999999979,-3.616636027653208
27.398845911026,-24.16910399999999,-3.255671931490813
27.41256093978882,-5.432204999999982,-1.8395859979847304
27.41256093978882,16.64068400000002,2.985554700524384
27.428189992904663,-5.31626799999998,-1.892167322645656
27.428189992904663,-15.54863499999999,4.624277427779756
27.4303560256958,-3.835267999999985,-1.349708239680952
27.4303560256958,9.736829,-4.469731283606761
27.442517042160038,4.773982000000018,8.328179042003853
27.442517042160038,-10.196837999999984,10.21977106819779
27.45816802978516,4.063401000000027,13.477134148704472
27.45816802978516,10.540908000000002,-3.193099232529299
27.45891809463501,5.207810000000023,-0.9373491713418174
27.45891809463501,-9.927564999999989,3.7596459485667832
27.47250199317932,-1.5988079999999911,0.5927968574907831
27.47250199317932,12.792327,-4.274978362155068
27.488208055496216,0.2748820000000194,-4.643009641139548
27.488208055496216,-13.992835999999985,1.1750407290382316
27.48908495903015,6.973043000000018,15.089405378631204
27.48908495903015,14.422924000000023,-2.852300634573325
27.502453088760376,4.220477000000017,1.9503263983508048
27.502453088760376,-12.178984999999985,5.275732369337259
27.518513917922974,-2.99378999999999,0.2424943346507722
27.518513917922974,14.21348900000001,-3.043592837643107
27.518875122070312,6.210103000000004,5.647255714315011
27.518875122070312,-22.85265899999999,-1.7445817848125529
27.53251910209656,-7.952897999999976,-2.6030462361197486
27.53251910209656,15.825386000000009,-4.032592670501273
27.5482120513916,5.42846400000002,3.9767352426501033
27.5482120513916,-13.61884599999999,7.33721849626777
27.548973083496094,-4.112019999999973,1.9708820467258652
27.548973083496094,19.404470000000003,2.4199355247011525
27.562458992004395,-0.6638329999999826,-6.167948657583342
27.562458992004395,-21.876544999999997,-1.7090558499641126
27.578344106674194,-5.847333999999989,0.7630042376839752
27.578344106674194,9.710650000000015,-8.51079805616747
27.579564094543457,2.1560520000000167,5.140901341922591
27.579564094543457,-25.672543999999988,-1.127750562200454
27.59265899658203,-16.928657999999984,-9.277680606944983
27.59265899658203,7.885579000000007,-9.625355697749146
27.60834312438965,-3.0910279999999943,-0.1968982366922911
27.60834312438965,-23.57071999999998,1.6694143206273289
27.6088809967041,-15.600992999999988,-8.55779341421647
27.6088809967041,4.093320000000006,-10.962230545354634
27.62253999710083,-8.738276999999982,-7.143911666007494
27.62253999710083,-25.12651799999999,-3.467353083268346
27.6382999420166,-13.839499999999989,-7.327446867773274
27.6382999420166,5.81367400000002,-8.43144355048275
27.63891100883484,5.738876000000005,4.616063716117733
27.63891100883484,-11.490842999999984,6.7304640750116
27.65252995491028,-0.723670999999996,7.180149959887543
27.65252995491028,22.97607500000001,9.744968864955649
27.66829800605774,8.454043000000013,1.3282478624812768
27.66829800605774,-10.04350199999999,7.046192139676784
27.668872117996216,0.6152130000000113,1.3129511148508846
27.668872117996216,22.76664100000002,1.090565883103075
27.68249797821045,13.102739000000014,-3.523499817632868
27.68249797821045,-11.61051999999998,-3.5651518766031263
27.69820499420166,4.594467000000009,5.042288441515483
27.69820499420166,27.79306600000001,7.680409119759414
27.698909997940063,1.4978290000000245,-11.772372233077146
27.698909997940063,-13.985355999999996,-6.959938457415151
27.71270203590393,-1.1836789999999835,-2.6659382289315383
27.71270203590393,18.144124000000005,-5.978658389854186
27.728264093399048,2.1223930000000166,-10.650119543842676
27.728264093399048,-6.277422999999999,6.392707099095471
27.72913694381714,4.164378000000028,3.431581924648821
27.72913694381714,28.537306,10.409349722112726
27.742461919784542,6.445717000000002,1.8326813493655187
27.742461919784542,-12.784847999999982,-1.408482575699331
27.75862693786621,7.717283000000009,7.35214358231323
27.75862693786621,25.87449700000002,11.12833486887596
27.75885391235352,10.275375000000023,8.856470568838928
27.75885391235352,-8.820554999999985,0.3861292532610481
27.772597074508667,2.2158900000000017,-4.43184112945522
27.772597074508667,16.84263900000002,1.0438309404313042
27.78825807571411,12.564193000000015,13.253333865214271
27.78825807571411,-7.193697999999984,3.2474644743869323
27.788892030715942,1.4267710000000022,-2.900861285975446
27.788892030715942,21.67085,8.527749121689283
27.81898403167725,4.205517000000015,3.652706307484177
27.81898403167725,-6.59157399999998,4.97983886208606
27.819643020629883,1.1051400000000058,-1.3224192200718252
27.819643020629883,15.53367400000002,-0.4130192910736632
27.82027506828308,4.975936000000019,6.223915007074727
27.82027506828308,-19.93927699999999,-8.85220597515161
27.832597017288208,0.6301730000000134,-1.8360294411552576
27.832597017288208,16.894998000000015,1.7388566986183118
27.84829998016357,11.58808000000002,12.370046984312836
27.84829998016357,-19.56154699999999,-8.108325514444722
27.849020957946777,2.821754000000027,2.906716046311218
27.849020957946777,18.869665000000023,2.686463933597935
27.862596035003666,6.217583000000019,4.274763197828511
27.862596035003666,-9.44511799999998,0.984019545412453
27.878247022628784,2.0737740000000144,6.340542466401407
27.878247022628784,13.091519000000003,-4.903121861023106
27.878894090652462,3.622093000000007,1.97640810024632
27.878894090652462,-17.39614499999999,-3.2153911079728275
27.89259099960327,4.654305000000022,4.298103755841807
27.89259099960327,14.277068000000014,-0.90716850872791
27.9081289768219,3.693151,-2.4937583741266494
27.9081289768219,-18.783647999999985,-6.9724473813218335
27.90891408920288,-2.672158999999993,-4.5735901497471465
27.90891408920288,10.492289,-4.806171250415181
27.92261004447937,14.647318000000013,14.115030640305502
27.92261004447937,-8.341846999999973,6.473083752073803
27.93818497657776,-3.809089,0.1779127709472723
27.93818497657776,13.506648000000013,1.4982449412993155
27.9388689994812,7.0216620000000205,4.170179193178615
27.9388689994812,-2.675898999999987,11.204796425515015
27.95266604423523,2.0326350000000275,4.607324713220067
27.95266604423523,18.54055400000001,12.042544659463124
27.96817398071289,10.309034000000024,7.551979852965534
27.96817398071289,0.4992760000000089,10.832648508276872
27.968946933746334,4.250396000000023,6.123984577782885
27.968946933746334,20.582539000000025,12.520098554440388
27.982665061950684,8.783155000000022,6.631569172162823
27.982665061950684,-13.566487999999993,-6.627196513763927
27.998130083084103,-7.459230999999988,-2.744590783958512
27.998130083084103,25.42196900000002,18.04338544208069
27.99885392189026,10.918637000000018,7.6317719789845935
27.99885392189026,-8.39794599999999,5.270838045955582
28.012530088424683,7.010442000000012,13.539010862597996
28.012530088424683,7.34703300000001,2.599750960401442
28.02827000617981,9.811627000000016,11.210636714780067
28.02827000617981,-20.952789999999997,-14.363022209712277
28.029124975204468,-6.359699999999975,-4.331112813321751
28.029124975204468,20.784494000000024,7.577514388952533
28.04263401031494,9.878945000000016,8.779669420503097
28.04263401031494,-19.52788799999999,-3.2263293972347498
28.05830192565918,-10.073420999999996,-3.614912370452042
28.05830192565918,12.137845000000029,0.0393959225021305
28.058916091918945,4.732843000000003,-0.4541145157077126
28.058916091918945,-26.29336699999999,-11.07610366162289
28.07253408432007,-16.52474799999999,-10.832445200878064
28.07253408432007,8.267048000000017,-6.880454576989557
28.088243007659912,-0.1926049999999861,-5.237874689298646
28.088243007659912,-14.516421999999976,-1.7895322837756336
28.08899307250977,-7.571427999999997,1.869870868790482
28.08899307250977,13.069080000000014,-1.4574201398835278
28.1025230884552,-1.737183999999985,-10.017548723393848
28.1025230884552,-16.453689999999995,5.013267418962009
28.118304014205933,-10.675545,3.15006152231191
28.118304014205933,17.145571000000018,4.076368428131563
28.119029998779297,5.406025,-8.947757443286527
28.119029998779297,-10.712943999999991,0.6681664544708443
28.13248300552368,-9.561054999999982,0.4277504575504345
28.13248300552368,13.70860300000001,-2.350311546000654
28.148375988006592,0.402039000000002,-18.36281694385647
28.148375988006592,-13.207456999999977,-4.134005661459716
28.14893889427185,-7.100200999999998,-0.4130574354080822
28.14893889427185,15.327980000000023,-1.9645656252593149
28.16326904296875,11.004655000000014,-4.558084146132156
28.16326904296875,-20.504001999999986,-6.898198514248524
28.164196968078613,-3.349080999999984,9.408753075773811
28.17755699157715,14.583739000000008,-1.6991021021799249
28.17755699157715,6.591573000000011,-9.63369576463515
28.19339394569397,-18.002008999999987,-4.507935101142499
28.19339394569397,-10.840099999999978,-0.356782178558781
28.19400405883789,4.433651000000026,-9.9973426332609
28.19400405883789,-18.865925999999988,-28.701436602747727
28.20766592025757,-53.65447499999999,-36.30448921447962
28.20766592025757,-39.60367099999999,-22.446606139490694
28.223210096359253,-2.537522999999993,-14.340547490277327
28.223210096359253,6.430758000000026,5.3424809755837295
28.223937034606934,-3.670711999999981,13.25983351731037
28.223937034606934,20.765794,19.40432184296
28.237648963928223,35.36262400000001,0.0552932460123258
28.237648963928223,18.67893000000001,1.0700919543683725
28.25337100028992,-11.449703999999995,-2.2752387687567843
28.25337100028992,-0.592774999999989,-3.63255709896837
28.25397300720215,14.393005000000016,-4.184204668249677
28.25397300720215,8.255829000000006,5.9142831001814935
28.28400611877441,-28.42510999999999,-8.010978273832855
28.28400611877441,-11.763855999999976,-4.4772801553805
28.28473210334778,14.714636000000011,-0.7714212119001385
28.28473210334778,-2.997529999999984,-0.639922176581464
28.28541398048401,-18.00574899999998,4.295830709176798
28.28541398048401,-7.148818999999975,-7.190686907298981
28.29758596420288,16.169457000000023,-5.786319487832067
28.29758596420288,-3.1134669999999858,-0.5870324360973478
28.313249111175537,-12.324840999999992,9.784513451037622
28.313249111175537,-10.72042399999998,-7.942095201482377
28.3138689994812,16.375151000000017,4.120963109495298
28.3138689994812,10.013582000000014,5.055892375996944
28.32767391204834,-20.346925999999986,-2.544637768832313
28.32767391204834,-1.131319999999988,5.645201333934546
28.343333959579468,13.050380000000018,-4.537382929124174
28.343333959579468,-1.610026999999974,-0.5627971887712717
28.343975067138672,-19.39325199999999,-1.9667733082107968
28.343975067138672,-6.958083999999985,-1.5307808220694596
28.37406611442566,13.966656,0.2119990537115796
28.37406611442566,6.370919000000015,4.152087609987463
28.374624967575077,-21.457675999999992,-5.852038974465904
28.374624967575077,-3.487456999999978,-1.4723787793235932
28.375412940979004,14.942770000000024,0.9929994619767122
28.375412940979004,4.826340000000016,-2.092809839190096
28.38753390312195,-15.43643799999998,-1.8413561895333164
28.38753390312195,1.8942590000000048,8.594838989867075
28.40329599380493,24.071866,10.68208520424777
28.40329599380493,4.351373000000024,3.648344297076061
28.40403389930725,-12.09670699999998,11.231931980527442
28.40403389930725,-12.190203999999994,-4.171146723750702
28.41838502883911,17.63175800000002,6.621960058036688
28.41838502883911,-2.215890999999999,-8.471329787481679
28.433198928833008,-26.57011999999999,-9.523204598863575
28.433198928833008,-5.970750999999979,1.6386472595289332
28.43387794494629,17.231589000000014,2.106115714031196
28.43387794494629,7.851919000000009,6.6470696188541964
28.44753909111023,-15.87400599999998,4.883779250965041
28.44753909111023,-4.500969999999995,3.814138913595041
28.463351011276245,14.29202700000002,-1.4490860387576383
28.463351011276245,-6.651412999999991,-4.615423896864292
28.463930130004883,-23.89235099999999,-3.42296020104736
28.463930130004883,-9.822847999999992,-5.838880173206293
28.47761702537537,6.595313000000004,-4.210343650624797
28.47761702537537,-3.1845249999999794,-3.4417165850889395
28.493223905563354,-27.740707999999984,-12.142513397067017
28.493223905563354,-19.83081999999999,-13.523072558151222
28.4939079284668,7.556467000000026,-4.57391516543448
28.4939079284668,-4.198037999999997,-3.9787563689491376
28.50762295722961,-18.97438299999999,-5.343046984667412
28.50762295722961,5.940831000000003,10.261186880313575
28.523324012756348,14.366825000000006,-1.7268957172267996
28.523324012756348,11.490842000000017,4.894345362775976
28.524123907089237,-3.999822999999992,5.125338146841486
28.524123907089237,6.284901000000019,3.451190234127316
28.537585020065308,29.20300800000001,9.041131352611371
28.537585020065308,14.437883000000028,-1.2575720203482916
28.553258895874023,-3.790388999999976,0.412370264088655
28.553258895874023,3.5959130000000243,-1.077901539123813
28.55407309532165,36.82492400000001,9.3613968249256
28.55407309532165,10.193097000000025,-6.302099425274349
28.56760597229004,-22.718022999999988,-17.298352554167167
28.56760597229004,3.2967210000000198,4.0100251144431045
28.5833580493927,42.57689100000002,17.34634609552223
28.5833580493927,22.160777000000024,5.244244145333735
28.58393502235413,-15.324240999999972,-4.609204944762791
28.58393502235413,-1.2023779999999815,-0.2143855886198435
28.59756803512573,19.337152000000003,-4.933017578135068
28.59756803512573,12.302400000000006,-0.3930075482583266
28.61325693130493,-14.400484999999977,-0.4534297087451886
28.61325693130493,3.6445320000000265,8.965667198861144
28.614485025405884,33.683408000000014,10.77314081904353
28.614485025405884,18.52185400000002,4.818091803387771
28.62775611877441,-13.906817999999989,7.260731177495817
28.62775611877441,5.809934000000027,11.9633452241712
28.643296003341675,29.55081900000002,-2.0453132461888828
28.643296003341675,9.72560900000002,-5.0352795691736585
28.64397501945496,-17.72151599999998,2.590500084861908
28.64397501945496,-0.944324999999992,-2.2580765855989453
28.65764594078064,22.228095000000025,-7.939613868638638
28.65764594078064,13.577706000000006,8.430523828414863
28.67324995994568,-17.534520999999984,1.6360533265378407
28.67324995994568,-4.635605999999996,-3.4812634250177963
28.67388391494751,33.85170400000001,10.23163349852889
28.67388391494751,9.501215000000002,9.05911275334524
28.68761110305786,-27.067525999999987,-7.047024411160862
28.68761110305786,1.8755590000000095,-0.8130408695292832
28.70350790023804,28.167056,7.381834901391407
28.70350790023804,6.774828000000014,7.1584191604073055
28.70411705970764,-19.82707999999998,-3.037480436233043
28.70411705970764,-5.271388999999999,-8.126662662332166
28.71760892868042,22.51606700000002,2.049008558661047
28.71760892868042,4.433651000000026,2.5050222271853926
28.733341932296756,-18.667710999999983,-3.044776506498996
28.733341932296756,-3.061108999999988,-1.8350152874601855
28.73396706581116,21.382878000000005,2.505994221270317
28.73396706581116,-2.582400999999976,-8.162789083891628
28.74758100509644,-22.71428299999998,-4.8296648833796745
28.74758100509644,9.149665000000027,12.009955669862377
28.763262033462524,31.095398000000017,7.2017566620531
28.763262033462524,26.121331000000023,21.365311653468357
28.76399803161621,-4.620646999999991,16.577050254172846
28.76399803161621,34.60342400000002,41.85567061237209
28.777755975723267,59.286764000000005,38.632087339133705
28.777755975723267,67.125594,58.38071779745782
28.793190002441406,40.269372,61.38233214074103
28.793190002441406,53.05609000000001,60.22948292890104
28.79383897781372,79.684178,58.47706276254583
28.79383897781372,75.12898000000001,63.59153713664018
28.807557106018063,58.37796800000001,73.04203976961634
28.807557106018063,77.76186900000002,87.89645511495807
28.82334899902344,101.51023400000004,82.5525086599429
28.82334899902344,90.91883700000002,77.17747117034395
28.823909997940063,58.76317800000001,73.86033193835559
28.823909997940063,69.997837,74.54212585121702
28.83750891685486,104.90232300000002,81.76012916937373
28.83750891685486,81.72242300000002,59.92472748696144
28.85329389572144,40.942554,54.73334934649283
28.85329389572144,59.342862000000025,62.033730741301305
28.85389709472656,88.73847600000002,53.94588762445075
28.85389709472656,60.21425900000003,36.06500737276417
28.867573976516724,28.29047300000002,41.694548099410326
28.867573976516724,31.929395,19.52670495792166
28.883294105529785,61.46338500000002,19.419113940075547
28.883294105529785,40.19083400000002,19.26636689444865
28.8840548992157,3.2181830000000105,11.596718368778248
28.8840548992157,14.351866,-1.119673089582374
28.897865056991577,42.34501700000001,2.05569043909847
28.897865056991577,22.62078400000001,5.606335164552768
28.92977404594421,-20.814413999999985,-13.752692434897169
28.92977404594421,-4.093320999999975,-18.44490601748233
28.93024206161499,14.961469000000022,-28.78919445360318
28.93024206161499,-1.000423999999981,-14.504312949990137
28.93101906776428,-26.62621799999998,-16.882001367465268
28.93101906776428,-12.799807999999985,-29.71271755859392
28.93179702758789,17.871111000000013,-17.339060570722296
28.93179702758789,1.078961000000021,-9.86115192947008
28.942625045776367,-30.11928499999999,-14.36568370202646
28.942625045776367,-20.92661099999998,-27.315435448266413
28.95766305923462,14.43040400000001,-17.603606300743245
28.95766305923462,2.002716000000021,-2.658341823486947
28.973378896713257,-34.88391699999998,-14.749929987990978
28.973378896713257,-9.052427999999992,-9.80093709378094
28.9740629196167,16.25547500000002,-9.949368060697534
28.9740629196167,-7.620047,-15.099853370695264
28.987646102905277,-33.10372499999998,-18.334878874242804
28.987646102905277,-17.818753999999984,-26.041449988287507
29.00360107421875,15.032527000000016,-16.099870355590298
29.00360107421875,-1.49409,-13.846502678135476
29.00390601158142,-34.26309399999998,-25.598046165004657
29.00390601158142,-21.820446999999987,-24.577267097788432
29.01765203475952,18.226402000000007,-14.513321706523628
29.01765203475952,-4.523408999999987,-18.47439590670828
29.03333806991577,-34.831558999999984,-23.3065809677482
29.03333806991577,-6.980523999999974,-7.024639772642192
29.03400707244873,25.014320000000023,-6.764916605194504
29.03400707244873,1.5202690000000132,-11.663545934444514
29.047632932662964,-32.96534899999999,-14.785224793937513
29.047632932662964,-19.935536999999982,-8.395673021169674
29.063266038894653,10.275375000000023,-13.359859668813918
29.063266038894653,-28.619584999999987,-35.66645257771381
29.063956022262573,-76.82315499999999,-44.27532794917781
29.063956022262573,-51.51899199999998,-34.188034088564706
29.07764196395874,-0.1065879999999879,-8.955798613349884
29.07764196395874,13.873158000000018,25.301601307329165
29.09335803985596,-21.244501999999983,12.802176222142071
29.09335803985596,3.3229010000000017,-6.222614038085114
29.093992948532104,35.186848000000026,-11.813344270895392
29.093992948532104,4.044701000000003,-11.881983252710253
29.10760998725891,-29.505940999999996,-15.949716328684788
29.10760998725891,-12.878345999999992,-20.83963889001693
29.12328410148621,13.70860300000001,-14.691860349849712
29.12328410148621,-4.953497999999996,-8.088156332041116
29.12391209602356,-40.62840399999999,-20.437221854434483
29.12391209602356,-15.107326,-16.21118651968662
29.13769006729126,12.508095000000026,-3.656348817247917
29.13769006729126,-7.272235999999992,1.394022529763287
29.15339994430542,-36.08816499999999,-8.107624819948189
29.15339994430542,-15.167164999999985,-13.109960761524906
29.153927087783813,3.536075000000011,-17.507186003460863
29.153927087783813,-11.905971999999991,-5.066686952606689
29.168236017227173,-37.62900399999998,-14.199187566597026
29.168236017227173,-21.330519999999996,-11.504629317866142
29.16887903213501,19.209996000000015,5.884287546480788
29.182652950286865,1.194898000000023,-0.5330162590795391
29.182652950286865,-30.51571399999999,-5.101272613612743
29.214636087417603,-14.901631999999978,-5.402504960893396
29.214636087417603,15.23074200000002,2.3131210106748377
29.21544289588928,-1.823201999999981,-0.7738644232891372
29.21544289588928,-32.39314399999999,0.629581284889575
29.21601390838623,-17.36996599999999,-9.865548035205316
29.21601390838623,13.203716000000014,-4.700299158011752
29.216986894607544,-5.836113999999981,-2.363281028505675
29.216986894607544,-38.15632999999998,-10.327738475755268
29.22761392593384,-15.701969999999989,-2.285401020210635
29.22761392593384,16.079699000000005,1.0805278789554276
29.242549896240234,-0.4656179999999779,3.606303693165443
29.242549896240234,-39.37553699999998,0.0723300861977662
29.25821805000305,-12.160284999999988,6.347815921524916
29.25821805000305,7.672404,-6.193318008362201
29.25906610488892,-9.620892999999995,-3.4588943566046
29.25906610488892,-39.13618399999999,-3.795490463785299
29.2726309299469,-17.50460199999999,-3.0506186622678992
29.2726309299469,15.193343000000027,-3.660892164518465
29.28821992874145,-9.489996999999988,0.1573879699511273
29.28821992874145,-44.820830999999984,-1.923303765366981
29.28900408744812,-24.816106999999988,-3.2465180948530232
29.28900408744812,14.587479000000002,1.3697275132302256
29.30270195007324,-3.4986769999999865,5.872380688933212
29.30270195007324,-45.58751099999999,0.6865456443439086
29.31823706626892,-20.653597999999988,8.792211284833101
29.31823706626892,4.104540000000014,-1.1219883723139574
29.31890296936035,-15.08488699999998,4.153110795127862
29.31890296936035,-45.826864999999984,4.680328542111262
29.3325879573822,-21.00514899999999,4.650816265892324
29.3325879573822,6.307341000000008,2.978957339622289
29.348242044448853,-9.766748999999976,11.189130322395371
29.348242044448853,-43.05559899999999,6.264717051315017
29.34892201423645,-23.64925799999999,5.350975795651053
29.34892201423645,7.664924000000013,8.645930792671903
29.362612009048465,-12.530534999999986,5.883097842655026
29.362612009048465,-36.72394799999999,7.528441207629179
29.378031969070435,-19.920577999999992,1.641533948512187
29.378031969070435,16.827679000000018,5.670437503270865
29.394104957580566,-7.657445999999993,-3.480812096544419
29.394104957580566,-29.35634499999999,-0.2888566451401182
29.39481806755066,-12.193943999999988,-4.094897290801834
29.39481806755066,14.826833000000022,-9.052545186963496
29.395392894744877,5.922131000000007,-3.7875776552920506
29.395392894744877,-29.831311999999983,-11.699774023558575
29.40763902664185,-11.315067999999997,-11.173518840644311
29.40763902664185,21.19588300000001,-13.834071657526955
29.42263412475586,8.394205,-12.553827650731805
29.42263412475586,-9.815367999999978,0.785048966005375
29.438244104385376,4.82260100000002,4.472600365806602
29.438244104385376,23.62681800000001,-13.454670964863894
29.438887119293213,11.909711000000016,-16.995934988937606
29.438887119293213,-1.924178999999981,9.430157336720296
29.452665090560917,13.364532000000024,9.992909031299046
29.452665090560917,44.63009600000001,-0.0264550477887581
29.48460102081299,20.335706000000016,-8.877641039769099
29.48460102081299,8.109973000000025,15.44519587066721
29.485392093658447,17.470942000000008,9.524629213691933
29.485392093658447,31.428249000000022,-17.039715268204887
29.486062049865723,22.63948400000001,-5.4239297393811725
29.486062049865723,1.112620000000021,3.2755546841914134
29.48683905601501,12.362239000000017,-0.9627314609201604
29.48683905601501,23.140631000000013,-14.739162120440897
29.49760699272156,17.88981100000001,-13.672589784144684
29.49760699272156,6.830927000000003,4.764973414292216
29.51261806488037,14.654798,2.871083349397308
29.51261806488037,26.588818000000003,-7.759121222353421
29.528477907180783,15.481315000000023,-4.173177389080504
29.528477907180783,-1.8007619999999918,-3.808974384520051
29.52911710739136,12.642731000000026,-2.007959428213642
29.52911710739136,28.189495000000026,-3.2422726140690656
29.54276704788208,20.436683000000016,3.561362154569764
29.54276704788208,2.8741130000000226,4.318456424227257
29.558277130126957,25.698722000000004,13.08335383912311
29.558277130126957,36.40231600000001,10.54911551195706
29.55910801887512,26.652397000000008,14.70683628914971
29.55910801887512,18.200223000000022,21.866283029205743
29.572896003723145,37.10915700000001,30.00119161633941
29.572896003723145,49.779938000000016,21.448097624589707
29.58830189704895,27.852904000000024,21.72853327030653
29.58830189704895,14.363085000000012,20.692381616660803
29.58893609046936,18.566733000000028,4.775725303607956
29.58893609046936,26.042793000000017,-4.781973392153038
29.60267400741577,29.535859000000016,20.61669458622784
29.60267400741577,24.28504000000001,26.72034701636174
29.618386030197144,34.39025000000001,13.78629888591878
29.618386030197144,46.79549800000001,24.66096325436745
29.620162963867188,38.709834,31.32256235557865
29.620162963867188,30.074405000000013,38.96759341320556
29.632615089416504,34.63708300000002,33.42722642736441
29.632615089416504,42.96958000000001,28.110772563341065
29.64829993247986,37.34477100000001,25.435150333331947
29.64829993247986,22.99103500000001,28.55817342955519
29.64901900291443,42.18046100000001,38.16791708815215
29.64901900291443,36.71646700000002,19.64840998597795
29.662642002105716,27.875344000000013,16.626598459525248
29.662642002105716,11.135552000000018,18.608257434572423
29.678251028060917,15.384078000000017,12.771883559953888
29.678251028060917,27.30687900000001,3.020739183897959
29.678996086120605,0.1701650000000256,-12.564267510739672
29.678996086120605,-17.32882699999999,-8.751431414025042
29.69259595870972,3.2967210000000198,9.601799514825329
29.69259595870972,3.1097260000000237,-20.514796110653243
29.70833396911621,-15.825386999999978,-24.12564984837873
29.70833396911621,-10.488549999999975,-1.2574021366932566
29.70905303955078,-13.312174,-19.371342352362
29.70905303955078,-8.551281999999986,-33.5626421481401
29.72260594367981,-6.572874999999982,-23.042954628078004
29.72260594367981,-19.202516999999983,-12.929678967748458
29.738348960876465,-17.205409999999986,-23.36161054511563
29.738348960876465,-2.840453999999994,-30.54706837646299
29.739053964614868,-2.99378999999999,-16.079625720429892
29.739053964614868,-22.710542999999987,-14.6513567120236
29.769004106521606,-4.845040999999981,-4.833558087941671
29.769004106521606,-9.759268999999987,-26.909102055595586
29.769728899002075,-12.493135999999993,-24.10363047518389
29.769728899002075,-25.934336999999985,-20.508985398884438
29.77042293548584,-19.815859999999983,-25.47646135932395
29.77042293548584,-18.701369999999983,-38.38987651498727
29.78252911567688,-31.26743399999998,-40.48727252461385
29.78252911567688,-35.38132399999999,-26.95814218545413
29.798381090164185,-30.81490599999998,-27.759700113693377
29.798381090164185,-24.90586399999998,-43.76451229472745
29.79897093772888,-26.809472999999983,-31.185091578195586
29.79897093772888,-44.54781899999999,-31.496647297847225
29.812664031982425,-22.991034999999982,-19.39464550638648
29.812664031982425,-18.136644999999987,-36.394861759746895
29.830486059188843,-21.37165899999998,-27.24771502793335
29.830486059188843,-33.34307899999999,-27.122856474510076
29.830580949783325,-27.680869999999985,-27.66540927587197
29.830580949783325,-25.26489499999998,-40.08120323267105
29.842530012130737,-33.65348999999999,-38.29488449210147
29.842530012130737,-32.66241699999999,-19.823963856044458
29.858371019363403,-22.067279999999982,-24.15888963687379
29.858371019363403,-21.132304999999988,-33.42821337707471
29.859018087387085,-26.05775299999999,-24.87957055194268
29.859018087387085,-30.42221699999999,-16.932531209445365
29.872561931610107,-17.42232399999999,-14.689302777847445
29.872561931610107,-40.83783799999999,-49.23700311606532
29.888278007507324,-19.44934999999998,-16.796725818880372
29.888278007507324,-28.50738799999999,-21.83150721318036
29.889058113098145,-16.29287499999998,-23.407070618564067
29.889058113098145,-17.212889999999987,-31.100448064721316
29.90258002281189,-26.005394999999996,-29.76740775247256
29.90258002281189,-25.825879999999984,-22.72062229567292
29.918203115463257,-14.688457999999995,-20.25187569836345
29.918203115463257,-22.568426999999986,-29.37962239297644
29.918921947479248,-19.153897999999984,-24.02313467488296
29.918921947479248,-33.077545999999984,-28.832931261437444
29.948992013931274,-20.474082999999997,-23.91633344352828
29.948992013931274,-17.18297099999998,-27.01311309351179
29.949624061584476,-15.563593999999997,-24.37918368108565
29.949624061584476,-32.81949299999998,-35.97130716240123
29.95041012763977,-16.868818999999974,-22.613624326835915
29.95041012763977,-15.43643799999998,-25.61873526796304
29.96256709098816,-33.00274799999998,-38.43269607071011
29.96256709098816,-47.43128199999998,-37.91365021519268
29.978459119796756,-49.89213599999998,-46.07972906890243
29.978459119796756,-22.90875799999999,-22.05601692934361
29.97899889945984,-8.293228999999997,-1.016550494814222
29.97899889945984,4.3775520000000085,12.067422317028411
29.99281096458435,9.104786000000018,-3.4028675353965223
29.99281096458435,18.316160000000025,-11.842219113814998
