time_s,raw_eeg1,nlms_eeg1
80.01046991348267,8.188510500000007,5.63521655214042
80.01046991348267,7.4816695000000095,-2.1936418205514663
80.02583003044128,3.2368835000000047,-4.106150196238497
80.02583003044128,-1.681085499999995,2.3551287720983654
80.02635598182678,5.914651500000019,8.995437316970662
80.02635598182678,9.22072350000002,6.184308508802999
80.04072284698486,13.360792500000002,13.376985087529215
80.04072284698486,9.531135500000005,17.93128087485082
80.04136800765991,8.663478500000025,9.62492542602952
80.04136800765991,8.132412500000015,10.037714395064931
80.05500292778015,6.064247500000022,6.626201970289673
80.05500292778015,3.5996535000000165,10.794183253110363
80.07072186470032,12.347279500000012,13.516023137572809
80.07072186470032,10.604486500000007,9.35545554434216
80.07151198387146,5.297568500000011,5.147881355869555
80.07151198387146,-3.412658499999992,2.742905095342528
80.08501601219177,7.249796500000002,7.205270687824277
80.08501601219177,5.76879550000001,4.850602459962703
80.11723685264587,2.0662945000000263,2.512400319409555
80.11723685264587,-4.579507499999977,2.762908392305299
80.11783194541931,17.014674500000012,18.960508293565045
80.11783194541931,9.037468500000015,3.5785158572962423
80.11859393119812,-3.0237094999999954,0.8206111028768994
80.11859393119812,-12.594113499999992,-5.912584042665362
80.11936497688293,11.143031500000006,10.92304821442926
80.11936497688293,10.507248500000005,8.070091403479447
80.13013195991516,1.4492115000000183,9.06575873867356
80.13013195991516,-4.631866500000001,5.1705809509290415
80.14496803283691,-5.5144824999999855,-3.197769026042713
80.14496803283691,-3.87266649999998,-4.112975007346825
80.16229486465454,-0.9705044999999756,6.120312217988836
80.16229486465454,-3.7417694999999753,8.155984711712618
80.16230297088623,-0.7685494999999776,1.956067638424104
80.16230297088623,1.1350595000000112,4.130042752641227
80.17495799064636,-13.652504499999992,-2.511550033541756
80.17495799064636,-11.184170499999992,5.5192952292564215
80.1906349658966,-3.214444499999985,-0.2148868214785553
80.1906349658966,-7.567687499999977,-0.9138082345347208
80.19141387939453,-11.187910499999989,0.8587681103221758
80.19141387939453,-19.026741499999986,-2.1928280248858947
80.20495986938477,-6.63645249999999,2.85179327773268
80.20495986938477,-1.1387994999999762,4.843760699966604
80.22067189216614,3.296721500000018,16.894113904600623
80.22067189216614,-18.140384499999985,1.7396059520265368
80.22137093544006,-7.489149499999996,1.4181654775711223
80.22137093544006,-2.829234499999984,-0.0076662437051595
80.23504495620728,-4.803901499999995,7.890371404028905
80.23504495620728,-8.300707499999987,7.622884801210105
80.25074195861816,-1.1649784999999897,1.3133784901302423
80.25074195861816,17.482162500000015,18.72491333586467
80.25141096115112,5.37610650000002,11.038018301067948
80.25141096115112,-1.049041499999987,11.615578809870277
80.26570987701416,9.145925500000004,7.416576624175398
80.26570987701416,11.31880750000002,7.173768462684398
80.26635885238647,-0.1402464999999892,2.045661039220076
80.28002905845642,-1.2659564999999873,5.5323167682684495
80.28002905845642,13.914297500000004,6.249421022447674
80.29567790031433,12.362239500000015,4.5317813805293525
80.29567790031433,5.877252500000026,7.952691942485309
80.29635500907898,3.0087495000000217,9.318214327302476
80.29635500907898,10.896198500000024,5.431848696603925
80.3100528717041,4.695444500000008,-0.2784954112693567
80.3100528717041,6.786048500000021,8.66629964745906
80.32571196556091,5.02455550000002,5.133661731382974
80.32571196556091,18.3124205,15.109341224200756
80.32654285430908,18.353559500000017,7.198305449793677
80.32654285430908,5.495782500000018,7.809192925099673
80.34000992774963,5.222770500000024,7.712453497661684
80.34000992774963,14.12747250000001,7.855578817318355
80.35579204559326,14.220969500000024,5.861640917724269
80.35579204559326,7.384432500000003,5.546773959888369
80.35640382766724,4.594467500000008,5.417822210867982
80.35640382766724,3.1546055000000024,-3.859310927347108
80.37011098861694,15.271881500000006,9.31993949496432
80.37011098861694,9.93130450000001,10.25336913941387
80.38548302650452,5.076914500000015,7.00384853069273
80.38548302650452,13.918037500000024,8.334311731200051
80.40080690383911,20.698476500000027,14.52696406688572
80.40080690383911,6.191404500000004,5.256592860875216
80.40166997909546,-1.954097499999989,3.312116637905463
80.40166997909546,8.921531500000015,1.7595891028573112
80.4158718585968,15.668310500000018,6.297312425130894
80.4158718585968,11.292627500000007,11.409895035118328
80.41642785072327,4.508449500000012,5.173059431810499
80.41642785072327,5.641639500000025,2.7466177203787727
80.430016040802,7.354513500000024,-3.707762982379869
80.430016040802,1.5988075000000208,-0.6438590636921995
80.44570994377136,2.410365500000012,0.4760674044430564
80.44570994377136,18.03940750000001,12.017104025203874
80.44670605659485,1.4903505000000052,-9.637478210016388
80.44670605659485,12.665171500000014,7.090421162038313
80.45999002456665,-0.7984684999999843,1.553942312990257
80.45999002456665,9.617152500000005,2.887481038776645
80.4757080078125,25.193836500000003,14.877372050323926
80.4757080078125,7.12263950000002,1.8602469907540016
80.47659587860107,5.892212499999999,9.282852680698207
80.47659587860107,11.595559500000007,2.378556793745757
80.48995804786682,10.447410500000018,-3.570079826705012
80.48995804786682,6.722470500000014,1.1705563045869471
80.50578093528748,-0.3309814999999787,2.032228694507753
80.50578093528748,12.156544500000024,0.684564680885476
80.5064070224762,5.540661499999999,-5.980962886918597
80.5064070224762,7.54150850000002,-0.3754979993371474
80.5199658870697,3.981123500000024,3.129685334628308
80.5199658870697,4.104540500000013,-8.43691099433463
80.53574204444885,7.881839500000012,-5.322815914358907
80.53574204444885,4.7066645000000165,-0.5642843028005773
80.53666186332703,-6.045548499999995,-7.115265987154804
80.53666186332703,10.6605845,0.1703075674216165
80.55007100105286,10.368872500000007,-2.160722544492689
80.55007100105286,7.332073500000007,0.64436039368859
80.58225297927856,-5.843593499999997,-7.450298235593705
80.58225297927856,5.727656500000023,-3.1614981352640807
80.5828070640564,-2.2121504999999786,-14.85653209926976
80.5828070640564,2.2345905000000243,-4.811623653443203
80.58353805541992,-3.0648484999999823,-5.648157698925242
80.58353805541992,4.575767500000012,-5.23722653168992
80.58430194854736,3.4425774999999987,-5.89362104388619
80.58430194854736,0.9630245000000172,-5.738037686468462
80.59507989883423,-6.509295499999979,-8.585305178486507
80.59507989883423,4.504709500000018,-6.291238873601298
80.61002802848816,10.65310550000001,0.488788565037149
80.61002802848816,12.8746055,7.636576940829744
80.62564587593079,-0.076667499999985,-2.462589492651901
80.62564587593079,2.552481499999999,-2.4976276084401325
80.62650895118713,7.893058500000023,-0.7271164451127596
80.62650895118713,4.321454500000016,-4.718341570366846
80.64010190963745,4.1793385,3.7298700823451463
80.64010190963745,9.8041475,2.8632637161818826
80.67210483551025,6.647672499999999,-1.4682320599135608
80.67210483551025,17.033374500000008,13.999062553868486
80.67271995544434,0.4244785000000206,1.264600992516966
80.67271995544434,2.372966500000018,-0.9959282719820406
80.67348003387451,9.374059500000016,2.462012889290864
80.67348003387451,10.690504500000005,3.786907713246807
80.67421102523804,0.7236705000000256,1.7255126664150922
80.67421102523804,8.394205500000027,3.0556817023882257
80.68497085571289,3.3453405000000203,-3.311526797774176
80.68497085571289,-7.21239749999998,-7.806043309623615
80.70006799697876,11.674097500000016,14.877913929474358
80.70006799697876,6.928164500000008,3.5646101561280363
80.71588087081909,-7.287195499999996,-14.27006086885572
80.71588087081909,-4.40373249999999,-8.845857727610419
80.71640706062317,-12.164024499999982,-12.907076626095664
80.71640706062317,-7.56020749999999,-13.00852805148048
80.73004293441772,0.1514655000000004,-4.846637449023399
80.73004293441772,-8.517622499999987,-11.541827635491243
80.74570894241333,-12.631512499999983,-7.986615209883189
80.74570894241333,2.7170375000000035,-1.707083558160508
80.74651789665222,-0.7797694999999862,-5.252103218715485
80.74651789665222,0.9368445000000064,1.512034789716794
80.75994801521301,-17.76639449999999,-14.196878618171164
80.75994801521301,-1.4641704999999945,-5.189425752764107
80.7757568359375,2.885332500000004,2.4113428452963395
80.7757568359375,-1.4791304999999966,0.7470422322382335
80.77648591995239,1.460430500000001,9.211453408801017
80.77648591995239,1.0490415000000155,-4.443085368192298
80.79016494750977,-1.3108344999999986,-5.750541675561963
80.79016494750977,7.354513500000024,5.48155762989605
80.80579900741577,-4.658045499999986,-4.871269360109186
80.80579900741577,0.0355295000000239,-6.329896323341333
80.8064329624176,-1.0677414999999826,-6.237955376227578
80.8064329624176,14.942770500000025,14.764281278605509
80.82012987136841,-4.239176499999985,-4.231884333672298
80.82012987136841,9.359099500000012,-0.3095290055777653
80.83602786064148,9.22072350000002,4.5474828455682985
80.83602786064148,10.929857500000026,8.117001844323024
80.83648204803467,6.154005500000011,5.557655718574051
80.83648204803467,14.909111500000025,5.460671478832042
80.85003995895386,9.243162500000013,3.1938218287529736
80.85003995895386,8.166071500000015,6.703093341363103
80.86585402488708,-2.4440244999999834,2.400156973542792
80.86585402488708,-13.29721449999998,-16.837086570877407
80.86653089523315,-23.929749499999986,-25.92788947709651
80.86653089523315,-18.061846499999987,-17.97860109418615
80.88033199310303,-26.18116949999998,-19.82185314527081
80.88033199310303,-3.259322499999996,2.882997008683832
80.89569687843323,11.404824500000018,15.65905989124592
80.89569687843323,20.4778225,17.88043087887315
80.89639902114868,9.882685500000008,5.3634947699147215
80.89639902114868,7.840700500000025,-1.205211797379949
80.9101550579071,9.216983500000026,-2.0814873309693063
80.9101550579071,-9.45633749999999,-16.260884135170564
80.925696849823,-15.42147749999998,-12.39640717419728
80.925696849823,-11.569380499999994,-10.839915162898029
80.92651104927063,-13.588926499999983,-18.67497472267206
80.92651104927063,-21.188403499999996,-27.690911553745003
80.9400839805603,-23.020954499999988,-24.17651911583625
80.9400839805603,-12.758668499999985,-19.58786423843902
80.9558219909668,-18.66397049999999,-31.040565649817925
80.9558219909668,-21.315559499999992,-28.004170123325995
80.95654201507568,-25.665063499999988,-27.553136854278456
80.95654201507568,-17.332566499999984,-18.645512876862515
81.00305700302124,-11.696537499999977,-11.412193297283814
81.00305700302124,-17.20914949999998,-18.614438981387924
81.00306487083435,-25.964255499999997,-22.46978637714375
81.00306487083435,-17.844932499999985,-19.891113442955625
81.00307202339172,-22.63948449999998,-28.123853960948274
81.00307202339172,-14.935290499999994,-19.26893859295805
81.00393104553223,-21.162223499999985,-20.31181417836182
81.00393104553223,-16.678083499999985,-19.164545781889736
81.01571202278137,-16.562146499999983,-19.26989609553388
81.01571202278137,-21.02758749999998,-22.98572770674693
81.01653790473938,-21.45767649999999,-15.387463403424205
81.01653790473938,-10.5409085,-12.234127015971865
81.03015184402466,-17.134351499999994,-20.44142421603207
81.03015184402466,-15.01008849999998,-14.27891447292351
81.0457329750061,-11.580600499999974,-7.547612104360722
81.0457329750061,-8.289488499999976,-6.849178232721494
81.04648494720459,-1.48287049999999,-4.217733736499834
81.04648494720459,-5.507002499999999,-4.638764737262571
81.06652188301086,-2.2383304999999893,4.965724603434342
81.06652188301086,-4.702924499999995,-3.3578686608535357
81.07582497596741,-6.296121499999998,-8.451117968216174
81.07582497596741,-2.8516734999999755,-2.5813656875134754
81.0764639377594,-6.782308499999999,-2.3512753787671272
81.0764639377594,-1.90921849999998,-2.2986021156733587
81.09040904045105,4.530888500000003,4.28994640387504
81.09040904045105,2.0999535000000265,3.77227340067024
81.10587000846863,-10.870019499999984,-4.640051343105298
81.10587000846863,1.9540975000000171,2.166361454875537
81.10652995109558,-0.1290264999999806,-2.3106235267544246
81.10652995109558,-2.193451499999981,-1.2485948072146993
81.13664293289185,-13.458030499999992,-9.233411824675777
81.13664293289185,-7.743462499999993,-7.165791589762861
81.13712787628174,-1.9914964999999825,-5.443524068653383
81.13712787628174,2.331827500000003,3.409982262505792
81.13806796073914,-15.01008849999998,-9.884520186340666
81.13806796073914,-14.680977499999983,-14.193603810115142
81.15122294425964,-16.307833499999987,-17.69029623306281
81.15122294425964,-10.406271499999974,-10.288257669207448
81.16568493843079,-17.67289749999999,-14.02194253183579
81.16568493843079,-13.764701499999989,-9.268283960737444
81.16643500328064,-17.74021549999999,-19.445528377402887
81.16643500328064,-23.727795499999985,-23.316232073541684
81.18049383163452,-23.21916849999998,-21.373446985022643
81.18049383163452,-11.898491499999976,-14.427441547078905
81.1958680152893,-2.1784914999999785,-5.061451573077207
81.1958680152893,-18.892104499999988,-24.153959602969984
81.19659996032715,-23.62307849999999,-18.04174192696524
81.19659996032715,-7.074020499999989,-10.913472339406969
81.21001601219177,1.6623854999999992,-4.137197491816249
81.21001601219177,-9.041208499999982,-14.305170647212323
81.22580003738403,-13.82080049999999,-13.722582939179135
81.22580003738403,-3.5622544999999946,-9.589053668938334
81.2264609336853,-1.3257945000000009,-10.435576730358962
81.2264609336853,0.9966835000000174,-4.978629222369983
81.2401819229126,-13.95543649999999,-15.466663011070915
81.2401819229126,5.716437500000012,-1.4580532059197011
81.25578689575195,3.1620855000000176,-4.46419024599491
81.25578689575195,-3.061108499999989,-3.681899258380068
81.25640392303467,-3.850227499999989,-1.5439560451966816
81.25640392303467,1.8867795000000167,-4.925738624032163
81.27080488204956,-0.7461104999999861,-6.411935804863855
81.27080488204956,10.309034500000024,7.419039183466133
81.27184987068176,-7.831350499999985,-4.46815098993212
81.28500699996948,5.920261500000009,0.5936881834757051
81.28500699996948,8.18664050000001,4.168671733571471
81.3007800579071,2.4122355000000084,1.0761466102152628
81.3007800579071,-1.5445785,0.120165303909079
81.30151700973511,5.527572500000019,-2.262475553993273
81.30151700973511,-2.2701194999999927,-5.879166869394806
81.31496095657349,1.7876725000000135,-1.0112610265364703
81.31496095657349,1.2341665000000148,3.6761421433973287
81.33073592185974,1.7614925000000028,-3.474550794314545
81.33073592185974,7.786471500000005,3.755383285469165
81.33146500587463,8.654128500000013,5.085199936045821
81.33146500587463,8.68404750000002,9.52388730681199
81.34515595436096,9.589103500000022,6.9324497026276095
81.34515595436096,8.048264500000016,3.769074162461008
81.36075782775879,4.3420235000000105,-2.8786849688002274
81.36075782775879,-2.2215004999999906,-0.7857185670388722
81.36161398887634,15.019438500000009,10.08098074608248
81.36161398887634,10.31090450000002,4.96981991713305
81.37520289421082,9.9032555,3.639717730795808
81.37520289421082,4.936667499999999,5.546526751685825
81.39075493812561,5.804324500000007,0.552493566951509
81.39075493812561,3.9942135000000007,-1.5603203769177076
81.39151096343994,10.68115450000002,5.72948159721275
81.39151096343994,5.882862500000016,5.191796241483901
81.40510702133179,-0.0897574999999903,-9.50997826104317
81.40510702133179,11.971419500000025,6.082304571275916
81.42076396942139,10.352043500000008,4.793746397915393
81.42076396942139,-3.36964949999998,-5.826485830799872
81.4216480255127,9.596583500000008,5.912450758077666
81.4216480255127,20.453512500000016,12.152552173065134
81.43514895439148,8.691527500000007,5.8666398125238
81.43514895439148,-7.7715125,-10.074754279979272
81.45072293281555,6.170834500000012,3.0758752104510654
81.45072293281555,13.549657500000023,4.833344482598507
81.45141506195068,11.4141745,5.627488698846058
81.45141506195068,-1.8475104999999985,-3.4746911914726137
81.46511793136597,1.6193765000000155,-4.761225936937446
81.46511793136597,7.790211500000026,3.2807787531329744
81.48167085647583,5.856683500000003,1.784892967455674
81.48167085647583,-4.338283499999989,-5.707754283297025
81.48168206214905,14.406094500000023,7.52525044465533
81.48168206214905,3.4033085000000085,-4.222256304515265
81.5115020275116,-1.6380764999999826,-3.253549951150819
81.5115020275116,-9.446987499999976,-10.231659028842856
81.51213002204895,14.907241500000026,8.119018340984763
81.51213002204895,23.42673350000001,12.929899841899028
81.51290988922119,7.3601235000000145,2.3914950895449314
81.51290988922119,-15.58042349999998,-11.597955206487008
81.5249879360199,15.255051500000008,9.994270295911909
81.5249879360199,14.084463500000028,5.51227246065454
81.54074192047119,7.29654450000001,1.52057859525768
81.54074192047119,-7.068410499999999,-9.247723003257905
81.5413749217987,4.917968500000001,-0.0895759113227727
81.5413749217987,13.998445500000004,4.334529865053785
81.55503392219543,13.706733500000013,10.69696493658352
81.55503392219543,-2.262639499999977,0.0397753762595671
81.57075595855713,4.891789500000016,-2.1789302288200467
81.57075595855713,15.400908500000014,7.632855891962343
81.57162189483643,12.502485500000006,7.44746773311669
81.57162189483643,4.506579500000015,6.518422631110392
81.58512306213379,11.055144500000011,4.439132233223026
81.58512306213379,18.015098500000025,7.769924895238756
81.60067296028137,6.073597500000005,0.3403216344346926
81.60067296028137,-5.811804499999994,-5.76820856247632
81.60150694847107,12.895175500000022,6.885269828009076
81.60150694847107,24.627241500000025,15.00075804778167
81.61510491371155,18.527464500000008,7.743782688085215
81.61510491371155,-1.8437704999999769,0.5397826415053948
81.63073992729187,3.7099805,0.0726851188186366
81.63073992729187,15.700099500000022,3.344891358171921
81.63163185119629,6.428888499999999,-3.483442628900836
81.63163185119629,-1.0509114999999838,-1.7396333752763105
81.64506888389587,3.736160500000011,-1.147632878458671
81.64506888389587,17.543870500000025,6.127863758678384
81.66077399253845,19.38016150000001,10.804832964792524
81.66077399253845,-9.607803499999989,-8.4896379689335
81.66151595115662,0.2767525000000148,-5.193295877297415
81.66151595115662,-2.1205234999999902,-16.324292782759215
81.69139385223389,10.213666500000016,2.8266390810533206
81.69139385223389,7.517198500000006,9.400837245399607
81.69212603569031,13.108349500000005,7.6505635554862526
81.69212603569031,22.244924500000025,10.294405063615258
81.69281005859375,1.8512505000000203,-3.789580961249067
81.69281005859375,8.526971500000002,9.763602198171638
81.7051260471344,15.647741500000024,6.230697229431584
81.7051260471344,13.358922500000006,4.348678433848704
81.72069191932678,20.51709150000002,15.996982551244574
81.72069191932678,1.5333585000000198,1.1648663297401345
81.72139096260071,10.213666500000016,1.570875584461648
81.72139096260071,11.316937500000025,-0.5920469403789284
81.7351188659668,4.143809500000003,-5.178774312093431
81.7351188659668,2.819884500000001,3.826484224777524
81.75074696540833,6.8327975000000265,-0.4205828695221409
81.75074696540833,11.661008500000008,1.828911618395754
81.75140404701233,12.173374500000024,11.567142808863936
81.75140404701233,-1.4847404999999867,-1.2433474539995475
81.78139805793762,8.706487500000009,6.458649044458051
81.78139805793762,17.169880500000005,7.62672881073061
81.78216290473938,6.110996499999999,3.046867650298651
81.78216290473938,1.417422500000015,4.995575382689041
81.782958984375,10.920507500000014,6.315632752699455
81.782958984375,15.759938500000004,9.209159089476431
81.79510688781738,9.667641500000002,8.21761867602626
81.79510688781738,10.789611500000008,16.868648077058946
81.81093883514404,14.974559500000026,10.889084450427625
81.81093883514404,23.57632950000001,18.37975363772985
81.81154894828796,21.257591500000014,22.63427894534973
81.81154894828796,4.603816500000022,9.172498628934465
81.82507300376892,18.5648635,16.048956595666798
81.82507300376892,7.345163500000012,3.372982580844026
81.84070301055908,14.555690500000026,11.655537145709305
81.84070301055908,10.583916500000017,9.51187326295502
81.84135389328003,24.013897500000013,15.528070367057609
81.84135389328003,20.666687500000023,12.327900115627646
81.85501289367676,17.6598075,11.454286618082598
81.85501289367676,7.8051715,9.565150531026946
81.8707070350647,11.634828500000026,6.370573826044415
81.8707070350647,9.843416500000018,5.447407176927852
81.87154698371887,8.448433500000021,-1.6274671046287956
81.87154698371887,2.1130435000000034,-2.882167305795594
81.8851089477539,13.9498265,5.043396559035601
81.8851089477539,17.192320500000022,7.858168171040729
81.90080094337463,-1.641816499999976,-7.777194160222409
81.90080094337463,-0.927495499999992,0.2595910508672747
81.90171194076538,-11.2982375,-13.868244559575398
81.90171194076538,-5.374236499999995,-7.591957087835178
81.91508197784424,-22.678753499999985,-23.390776451357723
81.91508197784424,-8.06322449999999,5.030116003009727
81.93085098266602,23.385594500000025,32.29754975680574
81.93085098266602,30.69709850000001,27.276258215575854
81.931804895401,20.360015500000003,10.69359412661545
81.931804895401,12.63338250000001,11.778775514337262
81.94516801834106,18.748118500000004,10.898154264714938
81.94516801834106,18.400307500000025,4.279098897799317
81.96074986457825,10.778391500000026,4.915159631704292
81.96074986457825,1.7053945000000112,10.410475103150524
81.96160793304443,10.7596925,7.190847790009832
81.96160793304443,5.8940825000000245,-1.5015561458018194
81.97516798973083,9.076737500000007,4.307500855896766
81.97516798973083,-7.296544499999982,-6.073582225807845
81.9907660484314,6.402708500000017,0.011752246688351
81.9907660484314,8.964540500000027,-6.832330852012083
81.99164295196533,4.076490500000006,-9.345053268522989
81.99164295196533,3.3846095000000105,4.995967909973595
82.0049819946289,8.010865500000023,1.4133026594270257
82.0049819946289,6.118476500000014,0.1918955423972184
82.02090096473694,-3.137776500000001,-4.14354721337476
82.02090096473694,-6.88889549999999,-0.827846224947975
82.02170896530151,1.4735205000000065,-5.222945364120302
82.02170896530151,5.572450500000002,0.7576809067864438
82.03498482704163,7.412481500000013,1.7813546953019088
82.03498482704163,-7.898668499999985,-5.235792264806924
82.05088996887207,6.900115500000027,3.2484868997288183
82.05088996887207,7.72663350000002,-1.2621720009387118
82.05173087120056,9.49560550000001,5.042699897682754
82.05173087120056,-4.888049499999994,-1.1669154788062088
82.06514883041382,9.072997500000014,8.853936381178514
82.06514883041382,1.7053945000000112,-7.441018512535972
82.08075284957886,4.929188500000009,3.671153319899103
82.08075284957886,-4.9441474999999855,-2.13911362295274
82.08165884017944,4.244786500000004,-2.0050357682056648
82.08165884017944,5.090003500000023,-2.715711419411859
82.09511399269104,1.4772605,-0.2541889400753951
82.09511399269104,-16.081569499999986,-12.753569125896234
82.11089086532593,-13.744132499999992,-16.790930516529762
82.11089086532593,5.318137500000006,-3.754616175277137
82.11140584945679,-1.5931974999999738,-4.782951344957304
82.11140584945679,-7.345163499999984,0.4158123143742687
82.12527799606323,2.558091500000017,-2.190620306675539
82.12527799606323,-0.8339974999999811,-6.1502739223928895
82.14074683189392,3.5229855000000043,0.191429707616769
82.14074683189392,-13.400061499999993,-6.321960723570459
82.14146685600281,-3.26867249999998,-4.68971795075576
82.14146685600281,0.5161065000000065,0.2750122931169194
82.15530896186829,-4.102670499999988,-5.59287277908196
82.15530896186829,-15.651481499999989,-6.310653117751031
82.17088294029236,-7.184347500000001,-7.143604026134742
82.17088294029236,-4.121369499999986,-5.044641296692454
82.17181205749512,-4.469180499999993,-4.416088566293805
82.17181205749512,-17.12874149999999,-3.812033908832156
82.18521189689636,-2.617929499999974,2.305582592501117
82.18521189689636,-2.6515895,-0.865648428960863
82.20380401611328,1.0284725000000208,2.65281042797772
82.20380401611328,-10.209926499999996,0.4542657819827731
82.20389890670776,5.149842500000005,8.35831367549886
82.20389890670776,6.855236500000018,7.22452414681796
82.21523189544678,6.58596350000002,4.981929857131529
82.21523189544678,-6.877676499999978,0.2818359390573146
82.2305040359497,9.592843500000017,12.959064613059205
82.2305040359497,7.891188500000027,3.320848672908835
82.24600005149841,8.197860500000019,3.9063146849224415
82.24600005149841,2.419715500000024,2.0802931671204856
82.24643683433533,9.334790500000024,7.229753494435332
82.24643683433533,15.546764500000023,7.662596244489263
82.26086187362671,20.4460335,9.65108586006746
82.26086187362671,9.185194500000025,8.110588168690207
82.26153302192688,16.38824150000002,10.697158831793931
82.26153302192688,12.356629500000023,-0.9087049306811572
82.27587985992432,15.546764500000023,1.809608813545992
82.27587985992432,3.7810385000000224,-4.139850184373684
82.27649903297424,6.404578500000014,-4.260961742799804
82.29013395309448,11.636698500000024,-4.4967606490126
82.29013395309448,10.021061500000002,-3.6548906170897695
82.30576992034912,2.963870500000013,1.3925533978162663
82.30576992034912,13.45055050000002,5.939863493484745
82.30640602111816,18.065586500000023,7.402406260885652
82.30640602111816,17.493382500000024,3.3034276201645145
82.32014584541321,11.591819500000014,8.41318544780427
82.32014584541321,17.388664500000004,7.219268915757931
82.33571600914001,14.191050500000015,3.141972506930504
82.33571600914001,15.91888450000002,2.6941879832805498
82.33648204803467,4.702924500000023,3.456355953582324
82.33648204803467,14.198530500000004,6.248400348893025
82.35010194778442,22.564686500000025,11.116003795923472
82.35010194778442,10.447410500000018,2.351597049092586
82.36577796936035,3.9250245000000064,6.184986158144639
82.36577796936035,19.29227350000002,13.448823865106222
82.36645293235779,21.8054865,9.570561978653242
82.36645293235779,8.805594500000012,3.739901675830757
82.38029885292053,-6.135305499999987,-1.5582292254681516
82.38029885292053,11.606779500000016,6.064261373105679
82.39576601982117,14.755775500000029,-0.3253642138433825
82.39576601982117,10.746602500000025,9.484778194492716
82.39640593528748,5.44342450000002,8.263921228126073
82.39640593528748,6.296121500000027,1.1951346824507585
82.41027283668518,10.952297500000014,1.5765087519113905
82.41027283668518,-0.6526124999999752,-2.90141799682502
82.4257299900055,8.293228500000026,9.5605796720493
82.4257299900055,28.971134500000005,18.95825219701137
82.4264600276947,9.987402500000002,3.404090382493102
82.4264600276947,9.75926850000002,11.1876452242234
82.44009804725647,3.450057500000014,4.959643234171136
82.44009804725647,12.30988050000002,5.190959873859434
82.4556930065155,25.276113500000008,16.767165224496253
82.4556930065155,6.157745500000004,2.043938382015209
82.45644402503967,9.25438250000002,12.794686289084318
82.45644402503967,11.468403500000022,3.463321815559018
82.47027492523193,14.688457500000029,11.042505428391753
82.47027492523193,14.684717500000003,4.147338377442519
82.4858009815216,5.540661499999999,7.690690035541932
82.4858009815216,14.299507500000004,7.439320151485085
82.48647093772888,14.47528250000002,6.949207241375741
82.48647093772888,13.787141500000018,6.824821116775443
82.50022196769714,5.09187350000002,4.821190568690136
82.50022196769714,10.94855750000002,7.132420421841962
82.51592493057251,21.16222350000001,11.925304312627636
82.51592493057251,13.925517500000012,6.573715959075251
82.5165319442749,10.107079500000026,9.005927441337889
82.5165319442749,16.31157350000001,8.084408947435595
82.53033304214478,19.172597500000023,6.5012232811061335
82.53033304214478,8.869172500000019,0.4687323378454273
82.54578399658203,1.5838475000000187,3.57664606627229
82.54578399658203,13.461769500000004,7.145011050022351
82.5466079711914,13.267295500000015,0.8453922013339952
82.5466079711914,14.527641500000016,7.194282536359166
82.56018686294556,8.263308500000022,8.783374315104963
82.56018686294556,14.79317450000002,8.96180251196855
82.57571387290955,12.882085500000017,3.1828226541544904
82.57571387290955,13.536567500000018,4.473461680457284
82.57656288146973,7.343293500000016,7.923291793614604
82.57656288146973,7.638745499999999,-2.88701570592542
82.59002304077148,10.09212050000002,2.3471389998371057
82.59002304077148,2.271989500000018,-5.052930879562849
82.60577702522278,-6.441977499999979,-2.3085653921391565
82.60577702522278,6.460677500000003,-0.0250936041331648
82.60651993751526,16.094659500000006,2.9327456428706498
82.60651993751526,14.05641350000002,8.889874289509194
82.62007093429565,6.154005500000011,7.6448774977042895
82.62007093429565,8.252089500000011,3.0744421406783413
82.63574695587158,8.921531500000015,-1.6335819535541063
82.63574695587158,12.429557500000016,7.989006382784862
82.63647103309631,0.069188500000024,0.7647217221505613
82.63647103309631,18.548033500000003,13.812603810350272
82.64998602867126,8.562500499999999,-4.677334899138195
82.64998602867126,8.536321500000014,10.471122716548326
82.66581201553345,4.994636500000013,9.153989176405108
82.66581201553345,8.753235500000017,4.154009555157852
82.66649293899536,7.339553500000022,-5.384564460102201
82.66649293899536,11.154251500000017,7.190654264528004
82.68005299568176,4.762762500000008,6.763981756839156
82.68005299568176,4.874959500000017,-8.663617201185339
82.69573903083801,12.8746055,7.038171566088775
82.69573903083801,12.530534500000016,9.99717716556522
82.69649195671082,-7.036621499999995,-0.92583870472785
82.69649195671082,4.557068500000014,0.0529948071893411
82.71014499664307,5.241469500000022,-0.4885372323022015
82.71014499664307,13.760961500000008,10.785390127535004
82.72575283050537,-10.7765215,-7.3051684622672175
82.72575283050537,-1.2248175000000003,-10.116549888888636
82.72646188735962,14.0003155,5.476134823998756
82.72646188735962,8.742016500000005,2.957932108247979
82.74001002311707,-0.0130894999999782,2.216223565385903
82.74001002311707,2.776875500000017,-0.4509989743234817
82.75578188896179,9.643332500000014,2.2900786314329205
82.75578188896179,19.99911450000002,14.89420092238858
82.75650882720947,-5.634159499999981,-5.174661659878228
82.75650882720947,-4.011042499999974,-8.439210192032188
82.77001905441284,12.889565500000003,2.8954323232096506
82.77001905441284,3.341600500000027,-5.581925073544149
82.80233788490295,1.9017395000000192,3.766850605338292
82.80233788490295,6.3447405,1.1316379469984756
82.80295705795288,7.055321500000019,0.6339270631078291
82.80295705795288,-6.120346499999982,-9.801439070255142
82.80361104011536,-6.180184499999996,-4.011841996429821
82.80361104011536,4.108280500000006,1.5746936990750573
82.80432295799255,2.754436500000025,-2.6888804033208373
82.80432295799255,5.050734500000004,3.4545023788173603
82.81514501571655,-2.3991454999999746,3.4785479999428217
82.81514501571655,-4.478530499999977,-1.6280702437940722
82.8301739692688,6.3447405,1.6910958731776855
82.8301739692688,1.168718500000011,1.4572753717855584
82.84589290618896,3.4126585000000205,7.886175682126486
82.84589290618896,3.0723275,2.421688046505109
82.84643602371216,8.304447500000009,0.9993916483470846
82.84643602371216,14.254628500000024,7.418634701553541
82.86016201972961,3.199484500000011,3.2525949237494984
82.86016201972961,9.8041475,6.273329142015821
82.89215588569641,11.449703500000028,3.192623870167111
82.89215588569641,3.375259500000027,0.4130190527201565
82.89297986030579,-7.2011775,-6.743478859640218
82.89297986030579,16.40507150000002,10.606683592555022
82.89358687400818,17.16053050000002,5.91634167981425
82.89358687400818,11.03457450000002,3.057660043159707
82.89435195922852,2.470203500000025,1.994214116491945
82.89435195922852,5.521962500000001,-5.041151813785001
82.90510582923889,8.644778500000001,-4.039177755730826
82.90510582923889,-1.5875874999999835,-9.65017750389084
82.91999697685242,-14.28080749999998,-16.414579193191344
82.91999697685242,-14.752035499999993,-20.857468781807547
82.9358298778534,-11.546941499999974,-20.40388930775108
82.9358298778534,-12.111666499999984,-13.555397868668411
82.93651604652405,0.8396074999999996,14.011008711725456
82.93651604652405,33.39169650000002,39.17786384183341
82.9501440525055,36.43223550000002,62.45384004165834
82.9501440525055,31.757360500000004,71.89717863745382
82.9657690525055,25.747341500000005,79.68848677841822
82.9657690525055,13.106479500000006,73.29148533083199
82.966481924057,20.649857500000024,86.19695254079879
82.966481924057,12.313620500000011,93.23161335289652
82.98008799552917,8.480223500000022,97.03818069277136
82.98008799552917,0.6189535000000035,94.327667581254
82.99590992927551,5.114313500000009,102.89065862123756
82.99590992927551,13.45802950000001,122.85703571856718
82.99655294418335,-1.0640014999999892,115.31098282648011
82.99655294418335,-3.0199694999999736,115.81843416479936
83.01015305519104,15.19708350000002,131.17646592263085
83.01015305519104,10.761562500000023,136.1019604659456
83.02580094337463,10.17813750000002,132.47464504788817
83.02580094337463,8.360546500000027,121.85128064257584
83.02654504776001,-1.4230314999999791,102.4756721604059
83.02654504776001,7.410611500000016,111.4162193716734
83.03999996185303,1.7708425000000148,106.58922904728944
83.03999996185303,0.6862715000000037,89.62704046214643
83.05576491355896,1.6586455000000058,80.25077966500137
83.05576491355896,-3.607133499999975,76.46501785504644
83.05661582946777,-7.014182499999976,75.88030862613705
83.05661582946777,6.606533500000012,78.78770873515172
83.07001185417175,-1.2472564999999918,60.06823332981728
83.07001185417175,-1.2397764999999763,61.42679923537608
83.08576202392578,-5.435944499999977,59.03632041691354
83.08576202392578,2.4627245000000078,59.28958373045086
83.08649396896362,-1.9241784999999825,45.37752065397432
83.08649396896362,4.033482500000019,53.59114173310015
83.10012984275818,-7.4854094999999745,42.3277458421196
83.10012984275818,-11.1467715,33.94267191426998
83.1157648563385,1.9877565000000172,41.24299341727298
83.1157648563385,1.834420500000021,40.38329322966911
83.11649894714355,-7.563947499999983,34.97722274959979
83.11649894714355,-6.086687499999982,28.10749675598187
83.1301748752594,1.2248175000000003,29.183015650553592
83.1301748752594,-2.9376915,25.985749625244733
83.14575505256653,-11.479622499999977,25.384369341306005
83.14575505256653,-7.070280499999996,22.56290658937922
83.14651799201965,-9.807887499999993,15.185450570344138
83.14651799201965,-10.26789549999998,15.183596640076114
83.16022300720215,-13.592666499999993,17.532643110537084
83.16022300720215,-11.240269499999982,14.73871700551638
83.17584586143494,-9.482516499999974,11.948560977921922
83.17584586143494,-18.76120849999998,3.825523354755468
83.17661595344543,-27.65843049999998,-0.0698404323299826
83.17661595344543,-12.751188499999984,9.665649512007732
83.19008302688599,-8.098753499999987,9.556281605634044
83.19008302688599,-10.309034499999996,11.478802150866514
83.20575284957886,-27.05630649999999,-0.5398015725079333
83.20575284957886,-22.28045449999999,-2.14783080119647
83.20654106140137,-7.219876499999998,12.751542820828206
83.20654106140137,-6.213843499999996,15.244442621292862
83.22030782699585,-20.814413499999983,6.798924868571216
83.22030782699585,-14.157391499999989,4.950546934029759
83.2358729839325,-6.408318499999979,11.68094417455536
83.2358729839325,0.8134285000000148,19.044670371217943
83.23658895492554,-8.345586499999996,12.588171133715464
83.23658895492554,-6.849626499999999,7.271141451301052
83.25008702278137,6.071727500000009,18.05654049039282
83.25008702278137,2.986310500000002,18.813259232358032
83.2657699584961,-4.399992499999996,15.747205974958275
83.2657699584961,12.683870500000012,25.710150751746173
83.26653099060059,5.099353500000007,15.080867899724076
83.26653099060059,-0.4356985000000009,11.896532083025836
83.2812569141388,6.43449750000002,19.634684540296742
83.2812569141388,6.3783995,12.551463171822745
83.28143882751465,12.186463500000002,15.118224623970631
83.29512786865234,4.052181500000017,10.694088368294764
83.29512786865234,-0.0691884999999956,2.014250087868369
83.31355285644531,9.149665500000026,3.815594871450077
83.31355285644531,8.412904500000025,9.523050078580656
83.31356596946716,10.559607500000029,12.2097568947016
83.31356596946716,8.798114500000025,17.362732091506142
83.32517600059509,9.497475500000007,12.831210869027792
83.32517600059509,5.9931895,19.66780555330656
83.35725784301758,9.336660500000022,14.988311990341057
83.35725784301758,-1.0228624999999738,0.0182571597319594
83.3578929901123,-2.0363754999999912,-11.015043417365828
83.3578929901123,6.176444500000002,5.001647771828269
83.3586950302124,7.339553500000022,-1.715645626737734
83.3586950302124,7.747202500000014,-2.8616748383551567
83.35933494567871,11.853612500000024,-5.588511966891325
83.35933494567871,16.681823500000007,15.07642654219049
83.37011885643005,9.418938500000024,10.203148729045186
83.37011885643005,-0.2561834999999917,2.366542380772427
83.38522505760193,9.553574500000025,8.874497980491274
83.38522505760193,12.803547500000008,8.727499103313614
83.40081191062927,8.143632500000024,5.576854366560118
83.40081191062927,-4.055921499999982,0.6201371081960882
83.4015588760376,3.629572500000023,3.164296362927589
83.4015588760376,12.579153500000018,7.624970965268744
83.41511487960815,5.937091500000008,2.332825265416066
83.41511487960815,-3.027449499999989,1.0252922175337087
83.44712901115417,-2.6384994999999947,-1.2679681294021528
83.44712901115417,1.426771500000001,-4.383534085856761
83.44788885116577,0.488056499999999,-2.9388517126982414
83.44788885116577,-1.6661254999999926,2.0818687647621714
83.4485969543457,9.291781500000011,8.776860671995957
83.4485969543457,2.9900495000000262,-2.470154954069056
83.44936490058899,7.163778500000007,5.261701028128903
83.44936490058899,-1.1126204999999914,-1.457960402618156
83.46019196510315,5.854813500000006,6.432395763963464
83.46019196510315,15.399038500000016,7.416660628125394
83.47509002685547,3.274282500000026,3.1747167601536344
83.47509002685547,-12.53427449999998,-10.489984552480587
83.49331092834473,-1.890519499999982,-1.7069658660312186
83.49331092834473,10.8101805,3.617368059908783
83.49340200424194,9.347879500000005,8.452946352952809
83.49340200424194,-1.984016499999996,-2.2632938536988068
83.50508499145508,8.786894500000017,6.937550172043252
83.50508499145508,15.627171500000005,6.836651876632331
83.52074003219604,13.8656795,13.445070877023085
83.52074003219604,-1.0340824999999825,-1.559589989763742
83.52156805992126,1.849380500000024,-2.385228116991369
83.52156805992126,14.613659500000011,7.812772372081621
83.53535604476929,13.480469500000028,8.879152390309835
83.53535604476929,0.1477265000000045,3.721432107426511
83.55077195167542,10.06594050000001,5.045610478683066
83.55077195167542,19.9430165,11.78407580353414
83.55154991149902,7.960377500000021,1.3798795506216877
83.55154991149902,7.90053850000001,12.32004444215396
83.56514883041382,19.000561500000003,14.73307081874285
83.56514883041382,17.930950500000023,10.330570743036583
83.58073401451111,8.136152500000009,1.117861593307226
83.58073401451111,0.409519500000016,0.8229684771349719
83.5817379951477,15.892704500000008,9.573107964248525
83.5817379951477,30.91588250000001,23.018555080437856
83.59515285491943,16.928657500000014,10.012471274069018
83.59515285491943,20.664817500000023,20.351391478756582
83.61078405380249,18.551773500000024,11.810568819094362
83.61078405380249,11.053274500000017,-0.6259236340248471
83.61154699325562,7.152558500000026,2.089502852240387
83.61154699325562,9.0486875,8.173734978382846
83.62509989738464,20.50774150000001,15.310590201337464
83.62509989738464,22.037360500000005,10.873631960455644
83.64075684547424,13.772181500000016,10.945974004777618
83.64075684547424,8.008995500000026,6.057253315050563
83.6414430141449,10.447410500000018,5.926725271472102
83.6414430141449,18.15160450000002,7.096347239967443
83.65513896942139,16.592066500000016,11.101583296898234
83.65513896942139,1.0976605000000177,-2.5043230465412125
83.67079305648804,12.624032500000029,6.693166544281702
83.67079305648804,18.03940750000001,7.098269621370056
83.67159390449524,11.191650500000009,3.68682854853134
83.67159390449524,0.0579685000000154,-1.868080306411121
83.68520784378052,7.395652500000011,-0.6150829242283606
83.68520784378052,24.7263485,11.771870814621316
83.70078802108765,24.225201500000026,16.36528808673401
83.70078802108765,15.567333500000018,15.014238705185344
83.70210790634155,11.659138500000012,3.385648649983594
83.70210790634155,20.90417050000002,7.519552695687862
83.73162388801575,9.10852650000001,-1.5134696511053
83.73162388801575,3.472497500000003,0.8150931772881607
83.73218584060669,19.59520550000002,10.59519593140164
83.73218584060669,20.100092500000017,5.534411877831886
83.73298597335815,11.019615500000016,1.2908934196282544
83.73298597335815,11.423524500000012,10.406581613143278
83.74515986442566,16.827679500000016,9.575430804994856
83.74515986442566,19.610165500000026,7.204228933467235
83.7607958316803,20.1113115,12.9308537612107
83.7607958316803,15.09610650000002,9.690957213000235
83.76166486740112,8.259569500000026,-1.491374642234108
83.76166486740112,16.289134500000017,3.3960195520029544
83.77513194084167,13.293474500000002,3.695358496333622
83.77513194084167,4.287795500000016,0.4672112744247312
83.79081201553345,12.9082645,5.05040828882592
83.79081201553345,21.483855500000004,8.183546367138227
83.79170393943787,7.014182500000004,-3.030241275649397
83.79170393943787,8.035175500000008,6.080835132881314
83.80514693260193,-0.3010614999999745,-8.425926746544423
83.80514693260193,10.492289500000028,-1.3460901642112688
83.82084584236145,9.527395500000011,1.8753910493725885
83.82084584236145,3.143385500000022,-1.0197623835501135
83.82164192199707,8.820554500000014,-0.9657085964209512
83.82164192199707,15.97498250000001,5.8927010169371705
83.83515000343323,22.198176500000017,14.799445617505176
83.83515000343323,24.14666450000001,24.464876853276877
83.8507719039917,18.69388950000001,10.106592181317756
83.8507719039917,22.7292415,11.953648661929495
83.85164999961853,14.639838500000025,6.04917065455186
83.85164999961853,-5.252689499999974,-8.583806276065319
83.86510586738586,10.477329500000025,-1.410363081720977
83.86510586738586,11.273928500000013,-0.5693140417412614
83.88084888458252,13.95543650000002,3.820732206793652
83.88084888458252,-4.781462499999975,-9.984832690973803
83.88161492347717,2.653459500000025,-6.865373235233527
83.88161492347717,14.5201615,1.6422127301159506
83.91156888008118,1.6997845000000211,-10.325008215595298
83.91156888008118,-6.599053499999997,-13.30488797545866
83.9121880531311,-4.732843500000001,-18.689519662950534
83.9121880531311,-1.535228499999988,-18.502925938750774
83.91296696662903,2.451504499999998,-14.014683498798206
83.91296696662903,-5.263909499999983,-11.019798494448043
83.92533302307129,-13.315913499999994,-26.54598105687572
83.92533302307129,-28.37649049999999,-41.846963895711006
83.94082188606262,-27.078745499999982,-37.51501576598156
83.94082188606262,-36.30133849999999,-35.37197107373149
83.94161105155945,-15.238222499999992,-18.801928717496097
83.94161105155945,11.87231250000002,6.856096462214024
83.95517086982727,28.103478500000023,20.476034835589157
83.95517086982727,20.930350500000003,15.47279868957444
83.9708080291748,20.604978500000016,9.616339812923828
83.9708080291748,14.796914500000014,4.435372311494607
83.97148299217224,2.526302500000014,-7.17045951400892
83.97148299217224,-3.0872874999999738,-0.5122282255860533
83.98511791229248,1.8979995000000256,3.948626048216953
83.98511791229248,2.257029500000016,-4.038737339042494
84.00081396102905,12.167764500000004,8.185536468173353
84.00081396102905,-6.0605075,-9.762494089157746
84.00151300430298,0.0617085000000088,-5.530268935829769
84.00151300430298,19.774721500000027,3.549655969382478
84.01523494720459,2.451504499999998,-12.261734734473404
84.01523494720459,-2.0064564999999845,-12.822731054412172
84.03080201148987,-1.7072644999999795,-11.378400607025196
84.03080201148987,9.935044500000004,-1.4904041955748433
84.03150796890259,10.028541500000015,2.9115255157875684
84.03150796890259,-4.818861499999997,-4.965743746929898
84.04512691497803,13.12143850000001,10.262722034959827
84.04512691497803,6.498076500000025,-6.094023911559471
84.06078386306763,12.119145500000002,10.060049736969718
84.06078386306763,-6.7523894999999925,-6.044578614152151
84.06150484085083,2.9339515000000063,-1.0854549954938637
84.06150484085083,10.320253500000009,-0.2702877813050985
84.07520985603333,3.2406235000000265,-0.351990463466084
84.07520985603333,-9.706910499999992,-8.136904753598339
84.09082889556885,-7.287195499999996,-12.49256546347592
84.09082889556885,-0.9667644999999824,-9.414690382581162
84.0916440486908,2.257029500000016,-3.0143797795566325
84.0916440486908,-4.8973994999999775,-0.2954510829638206
84.10512495040894,-0.132766499999974,-4.155156382397802
84.10512495040894,1.086440500000009,-6.588555932529193
84.12081694602966,-2.234590499999996,-4.601615090521728
84.12081694602966,-9.617152499999976,-3.4903915438855497
84.12161803245544,-3.61461349999999,-6.907774028929985
84.12161803245544,-2.3393074999999897,-7.846493322490607
84.1350998878479,-0.7947284999999908,-2.911972910405486
84.1350998878479,-10.249195499999985,-5.773201035366003
84.15084195137024,-4.381292500000001,-7.059752011094228
84.15084195137024,-0.1626854999999807,-6.270343028958851
84.15153884887695,-9.104786499999989,-9.29103129399206
84.15153884887695,-21.96256249999999,-15.3782547498332
84.1651680469513,-3.120946499999974,-2.617993284739325
84.1651680469513,-3.401439499999981,-8.008907232905667
84.19731402397156,-6.389619499999981,-3.8043552866671546
84.19731402397156,-13.783401499999982,-3.010397880519552
84.1980128288269,-10.888718499999982,-9.001172630492158
84.1980128288269,-11.187910499999989,-11.364049781363564
84.19857883453369,-10.724163499999976,-10.86493198650998
84.19857883453369,-19.733582499999983,-11.625669138720696
84.19934105873108,-5.996929499999993,-1.9719365105136732
84.19934105873108,-1.654905499999984,-0.6122972583482782
84.21017003059387,-7.780861499999986,-2.6467068118408976
84.21017003059387,-25.276113499999997,-11.664701104006816
84.2251329421997,-12.62029249999999,-4.851994658542311
84.2251329421997,-5.974490499999973,-2.922438628707773
84.24075603485107,-3.0050095,2.383096196546246
84.24075603485107,-6.067987499999987,5.034225866833886
84.24145984649658,-0.7648094999999842,4.005680782329129
84.24145984649658,9.194544500000006,4.699549299848687
84.25513982772827,17.12687150000002,18.233617351565883
84.25513982772827,13.005502500000006,19.34686808980421
84.27076983451843,22.4599695,25.030919690352647
84.27076983451843,40.2693725,34.28468939766582
84.2716429233551,40.781739500000015,38.56436274835946
84.2716429233551,35.32148550000002,37.22062421573621
84.28580784797668,48.10446350000001,39.71150317607383
84.28580784797668,61.4372065,44.966249913007886
84.28648591041565,70.47841450000001,57.16501938479208
84.30008387565613,63.21178950000001,56.33775721538507
84.30008387565613,64.0906655,46.09063554975805
84.31579804420471,71.83599850000002,55.116401403912064
84.31579804420471,76.38745650000001,60.70607475311335
84.31644892692566,60.62751850000001,52.44214316449674
84.31644892692566,71.00948050000002,56.99082564886286
84.33012890815735,66.14761050000001,42.911188267856105
84.33012890815735,69.71547550000003,48.71887130302897
84.34608197212219,62.1234785,44.131809277367
84.34608197212219,59.8084805,40.27067641836422
84.34647297859192,60.17125050000001,30.41347288159873
84.34647297859192,52.14168550000002,29.85307492067313
84.36010384559631,36.209711500000026,19.903142580504287
84.36010384559631,33.659099500000025,10.941129782002758
84.37583589553833,42.03647550000002,10.74915321016464
84.37583589553833,23.890480500000024,-3.6088696102779103
84.37659001350403,22.78347050000002,4.406616608540972
84.37659001350403,16.8033705,-4.2819209957928095
84.39013504981995,22.8133895,-6.543202609306469
84.39013504981995,10.692373500000002,-16.385457641714307
84.40579295158386,-1.6530354999999872,-14.708597746807786
84.40579295158386,8.044524500000023,-9.209204950861338
84.40648984909058,4.330804499999999,-20.57042612936831
84.40648984909058,2.7301265000000114,-16.28040992018992
84.4201009273529,-3.033058499999981,-11.050417967602757
84.4201009273529,2.015806500000025,-15.233668600835184
84.4358069896698,8.066964500000012,-12.801119060175507
84.4358069896698,7.782731500000011,-9.472489847542509
84.43651604652405,-6.110996499999999,-11.995578475346765
84.43651604652405,-2.3000384999999994,-13.297296377017984
84.45016193389893,-7.977206499999994,-25.672701465621344
84.45016193389893,-2.8610234999999875,-16.5583132811497
84.46581292152405,-9.83219649999998,-12.465906364884518
84.46581292152405,-2.0980835000000013,-14.024755589652552
84.46648001670837,6.443847500000004,-10.466600190531825
84.46648001670837,-3.2836324999999817,-19.416773358389264
84.48016595840454,-13.878768499999993,-20.4003157097632
84.48016595840454,-4.349503499999997,-16.632161163083484
84.49580502510071,-5.097483499999981,-20.79852854070609
84.49580502510071,-4.996506499999981,-16.806169215655075
84.49649095535278,-18.624701499999983,-22.08954622717424
84.49649095535278,-7.928587499999992,-15.840623814264532
84.51013803482056,-8.381115499999993,-22.590885800164045
84.51013803482056,-2.584270499999974,-15.583442626455284
84.52584290504456,-12.046217499999983,-15.02664663890456
84.52584290504456,-8.418514499999986,-15.145431817861834
84.52657794952393,-10.1388685,-21.79755558252106
84.52657794952393,-13.474859499999994,-17.35148551073267
84.54071593284607,-15.763678499999983,-12.307954274213472
84.54071593284607,-14.705286499999984,-20.521865496331003
84.55585384368896,-8.601769499999989,-17.69883387354311
84.55585384368896,-18.198353499999985,-23.051812860570987
84.55652093887329,-20.25903849999999,-21.49959761692204
84.55652093887329,-18.57608349999998,-24.455480435620807
84.57011604309082,-13.863809499999988,-21.90365534901269
84.57011604309082,-10.617575499999989,-14.97513868505564
84.58582997322083,-25.397660499999983,-24.390651950014693
84.58582997322083,-8.571850499999982,-10.50246613783898
84.58653593063354,-4.102670499999988,-12.523089169064791
84.58653593063354,-6.002539499999983,-9.435396876786134
84.60015392303467,-19.67935349999999,-19.902480358341197
84.60015392303467,-8.91966149999999,-12.211703995863097
84.61583185195923,0.026179500000012,-7.321987106732554
84.61583185195923,-14.177960499999983,-9.81050437979228
84.6165189743042,-21.25759149999999,-15.106000484879392
84.6165189743042,-17.188580499999986,-18.43189415830655
84.63006496429443,7.995906500000018,2.039358213667009
84.63006496429443,-2.5468714999999804,-8.608968183799753
84.64706087112427,-12.577283499999991,-10.284305626334444
84.64706087112427,-2.857283499999994,-3.674011301499028
84.6470890045166,-8.904701499999987,-15.588307535572392
84.6470890045166,-6.215713499999993,-9.301422076547064
84.6601459980011,-17.181100499999985,-10.215205265209324
84.6601459980011,-12.536144499999978,-14.739052509870902
84.67584705352783,-6.219453499999986,-14.57587566085042
84.67584705352783,-2.7675254999999765,-8.102266081092376
84.67653584480286,-7.348903499999977,-5.101420845976939
84.67653584480286,-2.509472499999987,-4.991112978466559
84.69015192985535,-2.449634499999973,-5.571205693317038
84.69015192985535,-1.4436014999999998,1.3098258283013546
84.70583295822144,-6.986133499999994,4.833904946408904
84.70583295822144,-0.987333499999977,5.174046839903754
84.70671606063843,-7.917368499999981,-10.196522622453326
84.70671606063843,-10.367002499999984,-14.334991828491104
84.72022700309753,-12.42768749999999,-8.029448888909286
84.72022700309753,-4.155028499999986,-4.538038993854354
84.73594284057617,3.077937500000018,-0.7977627075075513
84.73594284057617,-19.481138499999982,-20.023993614054657
84.73660182952881,-12.521185499999971,-3.1648834241508847
84.73660182952881,-13.276644499999987,-14.89144444129868
84.7501380443573,-8.814944499999996,-14.163752424711884
84.7501380443573,-10.703593499999982,-13.853754250954772
84.76592302322388,-17.47281249999999,-14.969069608748832
84.76592302322388,-10.247325499999988,-10.505303001829706
84.76660084724426,-5.722046499999976,-10.829976792619489
84.76660084724426,-3.051758499999977,-3.187409916380608
84.7801878452301,-14.892281499999982,-2.880015087953401
84.7801878452301,-16.433120499999987,-6.444910667671806
84.79586601257324,7.333943500000004,5.438899846575612
84.79586601257324,-4.338283499999989,-2.9189079923664623
84.79655885696411,-7.99590649999999,2.5648831923023767
84.79655885696411,6.40644850000001,10.926710439202555
84.81021690368652,5.778145500000022,-1.3841306504611568
84.81021690368652,-2.460854499999982,-3.648750453444633
84.84219288825989,-6.32417049999998,1.6281513872635758
84.84219288825989,2.816144500000007,4.773049334434831
84.84301996231079,0.3702505000000258,-11.9143158226505
84.84301996231079,-1.193028499999997,-7.382212081153606
84.84374904632568,-3.496806499999991,-1.4910396632672351
84.84374904632568,-5.796844499999992,-7.08614277566889
84.84443998336792,1.8886495000000136,-7.844865938187013
84.84443998336792,-3.915675499999992,-12.101129000380636
84.8551778793335,-0.1832555000000013,3.706058121459592
84.8551778793335,-0.516106499999978,4.60664988740566
84.87012696266174,8.126802500000025,5.247593406691072
84.87012696266174,-4.648695499999974,-3.1211930669395933
84.88588500022888,-18.77429749999999,-9.898965688076617
84.88588500022888,-30.73449749999999,-25.529291982851785
84.88657283782959,-31.695652499999994,-29.419942687017663
84.88657283782959,-24.86659449999999,-18.44186501560537
84.90012192726135,-28.12404749999999,-14.22094192828636
84.90012192726135,-1.2940054999999973,14.571709446993314
84.91581892967224,10.789611500000008,17.245688188546822
84.91581892967224,31.504917500000005,30.834204180409635
84.91662096977234,21.979392500000017,19.008007834599503
84.91662096977234,15.367248500000017,11.743098729599163
84.93018293380737,13.23176650000002,5.656908361456976
84.93018293380737,-1.380023499999993,-7.040656649467676
84.94709086418152,-5.852943499999981,-0.3908919386355753
84.94709086418152,-3.384609499999982,-4.378056055825839
84.94710803031921,10.628795500000024,4.999744241151744
84.94710803031921,-6.720600499999989,-12.53904999099477
84.96016383171082,-2.3262174999999843,6.491197449257637
84.96016383171082,-1.918568499999992,-0.4487569777090865
84.97587299346924,3.870796500000012,-1.6352171031902358
84.97587299346924,-2.4571144999999888,-3.1487767195381773
84.97653794288635,-7.322724499999992,7.839792005720831
84.97653794288635,5.505132500000002,27.47745131809256
84.99009704589844,-0.4113894999999843,15.022563011710162
84.99009704589844,8.138022500000005,22.604264687603607
85.00598096847534,-3.3322504999999865,11.068623992579226
85.00598096847534,5.262039500000014,13.123118875795177
85.0065610408783,7.767772500000007,5.642635839551175
85.0065610408783,2.4047555000000216,6.284852406557608
85.02023792266846,0.8078185000000246,6.275320012076529
85.02023792266846,-6.9487345000000005,-6.674498307918727
85.03583788871765,-9.203893499999992,-13.093116631446026
85.03583788871765,1.1818085000000167,-0.4150725501220638
85.03656101226807,-4.555198499999989,4.694356867782291
85.03656101226807,6.657021500000013,10.188344214624754
85.05226182937622,-4.40934249999998,-5.294699402646296
85.05226182937622,-0.3814694999999801,-0.545226036075525
85.06595993041992,-10.370742499999976,-6.546856104688133
85.06595993041992,-7.992166499999996,-8.119674653716768
85.066654920578,11.874182500000018,5.464824982651799
85.066654920578,0.9611545000000206,-3.536953170497993
85.08018803596497,-12.1696345,-6.550924132789686
85.08018803596497,2.5506115000000023,3.803568256921472
85.095862865448,5.557491500000026,0.5021152134631137
85.095862865448,-7.618176499999976,-3.3384492411434064
85.09651803970337,-7.861269499999992,1.5539123200815317
85.09651803970337,-6.428888499999999,-2.845527686175937
85.11031484603882,-7.625656499999991,-13.910537721165614
85.11031484603882,-9.319830499999997,-10.548772777086192
85.12594985961914,-12.027518499999983,-4.473060605442554
85.12594985961914,-8.055744499999975,-7.507058815224337
85.12655687332153,-1.7764524999999765,-2.5593360666265794
85.12655687332153,-6.32417049999998,-3.701809355491656
85.14010405540466,-18.29185049999998,-10.200417609704203
85.14010405540466,-13.25046549999999,-9.099652788082665
85.15594005584717,-4.562677499999978,-6.865102318366247
85.15594005584717,-9.83219649999998,-11.43341026614211
85.15653896331787,-7.835090499999978,-3.174647396825286
85.15653896331787,-13.085909499999984,-15.529001631511385
85.17011785507202,-8.792504499999978,-12.805640124247711
85.17011785507202,-8.366156499999988,-6.074450975679064
85.18602991104126,-11.417914499999997,-4.04885627990466
85.18602991104126,-5.602370499999978,-6.245723170721434
85.18673300743103,-0.0373994999999922,-8.067116330413715
85.18673300743103,-13.41502149999998,-16.363324719424778
85.2001359462738,-12.397768499999984,-14.735918010970751
85.2001359462738,2.7899655000000223,-2.521707902842929
85.2158830165863,0.2580535000000168,-10.514694254445892
85.2158830165863,1.4323815000000195,-5.571438477014571
85.2166998386383,-2.928341499999988,-10.06127225098074
85.2166998386383,4.611296500000009,-2.107682460424005
85.23015284538269,14.002185500000024,0.2417514554563169
85.23015284538269,10.531558500000015,-3.508656436701012
85.24595499038696,1.170588500000008,-8.20752584992835
85.24595499038696,-0.0411384999999882,-6.654634699215192
85.24655199050903,4.057791500000008,-5.152951069050864
85.24655199050903,0.9574144999999988,-5.18866790079988
85.26933693885803,-6.152135499999986,-5.547282328648574
85.26933693885803,-1.006033500000001,-6.301911524153583
85.27580690383911,-5.879122499999994,-13.576953617275208
85.27580690383911,13.340223500000008,14.95369013351968
85.27672100067139,-1.4436014999999998,3.2009899109129325
85.27672100067139,8.130542500000018,11.342543687439544
85.29100203514099,2.3636165000000062,0.7004018101685532
85.29100203514099,7.936067500000007,13.15018400609894
85.2917468547821,-2.9844404999999767,6.296926231028616
85.30521082878113,7.992166500000025,14.982615532260311
85.30521082878113,9.772358500000024,9.818969358510302
85.32084894180298,1.9410085000000092,2.7144279317066653
85.32084894180298,0.964894500000014,8.279091043679301
85.32165193557739,8.687787500000013,13.367194473720854
85.32165193557739,12.715659500000015,13.811069143096482
85.33517789840698,3.672581500000007,4.93044255802317
85.33517789840698,-6.365309499999995,1.0770711061892069
85.35084295272827,2.045725500000003,2.202636846977529
85.35084295272827,4.760892500000011,1.276624809365094
85.35170292854309,9.267472500000023,7.361818147812355
85.35170292854309,3.3584305000000256,6.656961409400035
85.36523795127869,7.348903500000006,8.698636791852092
85.36523795127869,10.78213150000002,4.695388055484514
85.38088583946228,17.62988850000002,13.769381784819169
85.38088583946228,6.5635245,9.584310859242503
85.38175797462463,6.757999500000011,3.877348794233951
85.38175797462463,22.289803500000005,17.164528997421215
85.39520597457886,13.792751500000008,9.298804717170054
85.39520597457886,5.370496500000002,10.774191302795266
85.41092896461487,6.189534500000008,4.730100312825218
85.41092896461487,8.57185050000001,4.229551913477856
85.41167902946472,-0.1458564999999794,-2.241409174093082
85.41167902946472,1.110750500000023,3.1539666908222004
85.42515993118286,9.559184500000017,5.749481018005358
85.42515993118286,13.0260715,8.831685120533647
85.44085383415222,4.315844500000026,1.8943796824386
85.44085383415222,-1.065871499999986,-1.6104203496238765
85.44149804115295,2.408495500000015,-1.1560955469155163
85.44149804115295,8.156721500000003,-3.2287496846914525
85.45512986183167,4.20738750000001,-0.4188530459301525
85.45512986183167,7.22922650000001,6.255669255619748
85.47090291976929,9.23755250000002,4.464551284109446
85.47090291976929,17.169880500000005,12.133814553973444
85.47150588035583,8.351196500000015,3.753188589949942
85.47150588035583,4.345763500000004,5.680243551726501
85.48523783683777,7.008572500000014,2.1086060032651144
85.48523783683777,14.473412500000023,6.566332325984063
85.50076103210449,12.648341500000017,6.987545438703778
85.50076103210449,-1.0920504999999991,-2.401800230683437
85.50163698196411,10.045371500000016,5.970676395706428
85.50163698196411,11.92280150000002,5.753157120417752
85.5152599811554,4.9404075000000205,1.15243929621327
85.5152599811554,1.3688035000000127,1.6121404629239464
85.53079295158386,13.744132500000006,9.599810948830392
85.53079295158386,12.401508500000006,-0.4745610337568511
85.53154492378235,16.541577500000017,11.137832891931716
85.53154492378235,-0.6320434999999804,-1.079097047028616
85.54521703720093,7.86126950000002,4.952229965660544
85.54521703720093,7.412481500000013,-1.1439405974692214
85.56078791618347,0.2243935000000192,-3.3295735229726926
85.56078791618347,12.1210155,12.050389361602866
85.5615348815918,15.2587915,10.414590187555394
85.5615348815918,9.6526815,0.3101883774428078
85.57515788078308,10.079030500000016,5.359792897307578
85.57515788078308,3.440707500000002,1.042317783174881
85.59080791473389,-4.289665499999984,-7.634814002298518
85.59080791473389,12.31549050000001,3.3372034954515115
85.59162092208862,12.637121500000006,6.240238885138759
85.59162092208862,8.78502450000002,7.619709552606006
85.60522484779358,2.314998500000001,-2.5786901485591702
85.60522484779358,11.975159500000018,4.905434075777587
85.62094902992249,1.3987225000000194,-5.615422687154748
85.62094902992249,0.6021235000000047,0.048877027853027
85.62165904045105,3.56412450000002,1.7266628131722466
85.62165904045105,5.348056500000013,-2.074439413465627
85.63520693778992,-0.4263484999999889,-4.99362373410068
85.63520693778992,-11.6161295,-9.85493512517655
85.65078783035278,-5.36675649999998,-5.5568567154862
85.65078783035278,9.222593500000016,0.7475266000498202
85.65160799026489,1.5782375000000002,-7.554137220447945
85.65160799026489,0.0149595000000033,1.2633636476865415
85.66510891914368,1.0995305000000144,-0.8230338372667392
85.66510891914368,4.581377500000002,-4.951163164411209
85.68081998825073,0.325371500000017,-3.3851576766971223
85.68081998825073,-16.463039499999994,-13.831596220385231
85.68162393569946,-11.971419499999996,-12.403288923730416
85.68162393569946,6.933774500000027,-2.7950899832834093
85.69512486457825,0.2056945000000212,-7.051358947411998
85.69512486457825,-14.854882499999988,-12.779957423906012
85.71099805831909,-7.764032499999985,-6.257579334693964
85.71099805831909,-2.965740499999981,-8.951680788959825
85.71167802810669,3.519245500000011,4.065061678291973
85.71167802810669,-8.111843499999992,-1.8121703388882155
85.72513794898987,5.400415500000008,7.552676759846095
85.72513794898987,3.5042865000000063,-3.911923366522752
85.74081587791443,-10.7596925,-12.69448396403811
85.74081587791443,-2.2551594999999907,1.273128410557228
85.74167203903198,1.6305965000000242,1.9941747612565728
85.74167203903198,3.388349500000004,-2.458736805290102
85.755136013031,1.017252500000012,-1.9195647346488087
85.755136013031,-3.926894499999975,-0.8283478888709874
85.77092003822327,-0.2655324999999777,-3.828665954787846
85.77092003822327,9.245032500000008,-1.0374596387930328
85.77169299125671,-8.190380499999975,-16.2296531421566
85.77169299125671,2.498253500000004,2.647360341243182
85.78512787818909,-3.807218499999976,-11.667411512785405
85.78512787818909,7.853789500000005,0.1842710226739825
85.80089092254639,-0.029919499999977,-6.226404591025343
85.80089092254639,-8.411035499999997,-8.931885156859941
85.80167388916016,-5.576190499999996,-10.028001665005052
85.80167388916016,4.353243500000019,-3.3849449275767185
85.81508898735046,-4.065271499999994,-7.236724032814386
85.81508898735046,-4.873089499999992,-3.38765601127493
85.8308310508728,-5.179761499999984,-7.15721384357046
85.8308310508728,-14.765125499999982,-18.908238966627085
85.83166599273682,-32.72786449999998,-30.34691191829102
85.83166599273682,-39.62797949999998,-33.03462756046812
85.84524393081665,-35.03164249999999,-25.56190547693185
85.84524393081665,-15.79359749999999,-13.035268696670444
85.86079788208008,5.359276500000021,16.829940155655947
85.86079788208008,6.795398500000005,9.827344733871923
85.86175990104675,24.975051500000006,15.42053199990292
85.86175990104675,24.339268500000003,8.424547802708531
85.87515902519226,12.56232350000002,1.5044928187249482
85.87515902519226,-4.181208499999997,-6.319451334075577
85.89088702201843,-6.25685249999998,-10.122497065095704
85.89088702201843,3.2462335000000166,-0.0815515427373361
85.8918080329895,1.3762834999999995,-2.1709252488104127
85.8918080329895,-3.8782764999999984,-3.412981190611239
85.90535092353821,1.2079875000000015,-4.441674629792221
85.90535092353821,7.049711500000001,-1.8796246578456424
85.92095804214478,4.611296500000009,-0.8299456644491325
85.92095804214478,-6.017499499999985,0.4016903127235576
85.92171502113342,9.60780250000002,15.45599593003207
85.92171502113342,13.01485150000002,18.07159438438545
85.95181393623352,3.59778350000002,15.832495939900188
85.95181393623352,2.236460500000021,17.08064835022892
85.95226383209229,10.370742500000006,14.626384996599494
85.95226383209229,7.831350500000013,1.7378492717206182
85.95304894447327,12.0686575,10.737841249725186
85.95304894447327,1.0808315000000164,5.480474454525551
85.96530103683472,9.443247500000012,9.858528954795853
85.96530103683472,18.082416500000026,12.156737197506974
85.98088598251343,8.7962445,9.014769535947774
85.98088598251343,1.1257094999999993,6.551500648031603
85.98183083534241,9.331050500000003,10.03971738366863
85.98183083534241,3.638922500000007,-3.4283059035161934
85.99523305892944,11.690927500000017,7.062105955741561
85.99523305892944,-3.6763215,-1.4706685587281378
86.01096391677856,5.116183500000005,3.4137181010859576
86.01096391677856,10.1052095,8.872261174245208
86.0119559764862,2.969480500000003,2.5583693407688424
86.0119559764862,0.4151285000000086,6.568019057900347
86.04189801216125,0.3216315000000236,-0.0213451900024939
86.04189801216125,7.154428500000023,2.775004391495981
86.04226493835449,-3.3808694999999886,-7.572998458604527
86.04226493835449,1.4660405000000196,7.252647833202159
86.0430040359497,8.444694500000026,9.226748036911443
86.0430040359497,9.32731050000001,6.725175743260293
86.05511999130249,-1.2827854999999886,-3.163278497220574
86.05511999130249,-9.862116499999985,-2.770798883680033
86.07087302207947,0.7629395000000159,1.9662525384549812
86.07087302207947,0.3665105000000039,-5.88656502873782
86.07164287567139,0.9574144999999988,-0.3903671535706479
86.07164287567139,-2.6815084999999783,2.078511664210235
86.08530187606812,-5.363016499999986,0.2050325415502643
86.08530187606812,3.59778350000002,3.553378253982666
86.10095191001892,-5.190981499999992,-2.6286016202111533
86.10095191001892,-10.284724499999982,0.7046126311262171
86.1018419265747,-0.740500499999996,0.6246270048522806
86.1018419265747,-5.912781499999994,-10.61775207635228
86.11543297767639,-5.871642499999979,-1.5762880522545872
86.11543297767639,-17.211019499999992,-7.151040883755032
86.13090705871582,-9.072997499999984,-4.093942376572192
86.13090705871582,0.2692724999999996,-0.5697571621185271
86.1316888332367,-7.001092499999999,-5.097625998215856
86.1316888332367,-7.39752249999998,-1.7296336704575517
86.14519000053406,-2.644109499999985,-2.198576368347956
86.14519000053406,5.871642500000007,-3.7688167280797327
86.16089105606079,2.797445500000009,-1.7394999923618624
86.16089105606079,1.5146595000000218,0.2587935175346927
86.16175389289856,7.326463500000017,0.2387766871853838
86.16175389289856,8.822423500000014,-5.996503599627346
86.17516994476318,7.322724500000021,-0.1078713337231489
86.17516994476318,3.085417500000005,0.7219647415131734
86.19088697433472,11.821823500000022,0.3332941416879276
86.19088697433472,11.96393950000001,-3.989051798173626
86.19198489189148,8.54941150000002,-2.116262633941304
86.19198489189148,7.386302499999999,7.278476192100441
86.2051899433136,6.526125500000006,0.2481968082130681
86.2051899433136,8.631689500000022,-1.3608221126339777
86.22088384628296,10.067810500000007,3.001308798475118
86.22088384628296,-1.944747499999977,-5.818399732167807
86.2217710018158,16.152627500000023,12.64679096623099
86.2217710018158,14.6716275,6.336797602312968
86.23520684242249,5.374236500000023,4.636006763357848
86.23520684242249,-2.4010155,2.7879237946613857
86.25088405609131,11.702146500000026,9.92856031525944
86.25088405609131,17.700946500000015,10.029701957672582
86.25167298316956,12.491265500000026,12.41541947001189
86.25167298316956,-4.615036499999974,-1.2243933344195497
86.26523089408875,7.741592500000024,7.645871358640385
86.26523089408875,12.031258500000009,7.482903515474479
86.28082203865051,1.8811694999999984,-0.1139521645386427
86.28082203865051,-3.328510499999993,0.0497374463615827
86.28200602531433,4.517799500000024,4.929846758000891
86.28200602531433,11.7171065,7.88202281012173
86.2958300113678,5.897822500000018,6.190996597634544
86.2958300113678,2.561831500000011,10.153438305959122
86.296560049057,1.8082415000000085,1.0836344752421976
86.3102159500122,-1.5875874999999835,-6.985962685119424
86.3102159500122,-1.1126204999999914,0.1727389104576466
86.32588386535645,-9.72560949999999,-3.67195559217249
86.32588386535645,-1.987756499999989,2.926147202896937
86.32656002044678,-2.8254944999999907,0.2272715924547226
86.32656002044678,-7.361993499999983,-0.70459380124161
86.34015488624573,-20.429203499999986,-7.882524732242699
86.34015488624573,-7.84444049999999,-1.541932443027794
86.3558669090271,-12.605332499999989,-11.562334502773156
86.3558669090271,-7.0515814999999975,1.3003033855555604
86.35658288002014,-14.834313499999991,-6.830138427356644
86.35658288002014,7.361993500000011,11.00481939712749
86.37016797065735,5.656598500000001,8.145933961444676
86.37016797065735,-5.241469499999994,5.664521710758855
86.38582587242126,-14.194790499999982,-1.3484760263300686
86.38582587242126,-16.06100049999999,-12.95656235870867
86.38652491569519,-3.3303804999999898,-4.243619129916536
86.38652491569519,-5.963270499999993,-0.9811897175311676
86.40022683143616,-14.168610499999986,-3.273204176793397
86.40022683143616,-6.718730499999992,-1.9934735736719704
86.41584706306458,0.1963445000000092,5.047299437128995
86.41584706306458,-6.580353500000001,6.555922763298078
86.41653394699097,-13.88811849999999,2.134547028577753
86.41653394699097,-16.73044249999998,-10.996110000351926
86.430184841156,-3.5285954999999944,2.6635504729795976
86.430184841156,-11.326287499999978,-0.4433721826891563
86.44586396217346,-23.09201249999998,-9.762202087713074
86.44586396217346,-10.668064499999986,-4.087794252820185
86.44655299186707,-1.3931125000000009,4.080208388502366
86.44655299186707,-3.311681499999992,6.614715984160284
86.46020603179932,-9.542354499999988,3.06382899497709
86.46020603179932,-11.483362499999998,-3.8850492825932577
86.47583293914795,-4.856260499999991,-1.3811681115756325
86.47583293914795,-4.598207500000001,1.3468636519431385
86.47657895088196,-13.40193149999999,-3.071847158163603
86.47657895088196,-4.486010499999992,-1.7919891819647566
86.4961268901825,-0.5927744999999902,1.87099215110012
86.4961268901825,4.227956500000005,12.77124080822685
86.50599789619446,-10.466110499999983,2.6422204295028653
86.50599789619446,-11.281408499999998,-1.1070094759627302
86.50654983520508,1.460430500000001,1.4570934592312934
86.50654983520508,9.082347500000026,11.05755451806425
86.52020692825317,-11.229049499999974,0.3598231964742933
86.52020692825317,0.5778145000000166,11.01745627793435
86.53584599494934,-5.544401499999992,-6.677032298348143
86.53584599494934,-4.833820499999973,-2.911109372573841
86.53650689125061,1.2061175000000048,11.005428492578035
86.53650689125061,4.115759500000024,5.50966911665514
86.55018901824951,-1.337014499999981,-4.381175571561033
86.55018901824951,0.3683805000000006,3.719466343985828
86.56585502624512,-14.841792499999984,-9.02201067050625
86.56585502624512,-6.965563499999973,-6.60055826078974
86.56651782989502,4.093320500000004,-3.697022211118021
86.56651782989502,-6.217583499999989,-4.482317922727907
86.58015489578247,-5.97075049999998,0.0792804105292201
86.58015489578247,-8.397945499999992,-7.656188362432105
86.59581089019775,-0.6900114999999971,-7.66461405270314
86.59581089019775,-7.84444049999999,-11.71082980647216
86.59649705886841,-14.46780249999999,-11.554792948149696
86.59649705886841,-6.124086499999976,-6.34441512417243
86.61016297340393,-1.4005924999999877,-3.008221841187754
86.61016297340393,1.4903505000000052,2.901735785060954
86.62586402893066,-19.726102499999985,-14.55743172682688
86.62586402893066,-2.8217544999999973,-0.0309509585527614
86.62673902511597,3.6482725000000182,3.159194571855511
86.62673902511597,2.0475955,3.533385996736073
86.6401948928833,-8.4091655,0.0596430991236864
86.6401948928833,-1.628726499999999,0.5221823686418192
86.65588688850403,2.257029500000016,-3.5296068328504013
86.65588688850403,-3.708110499999975,-2.826108074098287
86.65665602684021,-10.522208499999977,-6.310094733617475
86.65665602684021,-3.5173754999999858,-1.3740157693851431
86.67015194892883,6.254982500000011,2.833954003694908
86.67015194892883,3.4238785000000007,1.4549269108243952
86.68590593338013,-9.104786499999989,-8.001665337280699
86.68590593338013,7.433051500000005,5.804284798037402
86.68656587600708,18.518114500000024,11.789944412942106
86.68656587600708,15.600992500000018,13.93069983791505
86.70016384124756,2.073774500000013,9.012444664998108
86.70016384124756,12.395898500000015,12.820329057123052
86.71590304374695,16.27791450000001,11.349372446277442
86.71590304374695,11.82369350000002,7.119318192356012
86.71658897399902,3.562254500000023,5.451857330382827
86.71658897399902,11.371165500000018,6.612627271819437
86.73022603988647,17.048333500000012,8.20354582827109
86.73022603988647,24.1391845,19.539826813798992
86.74583983421326,10.417491500000011,10.751046113858102
86.74583983421326,14.179830500000008,14.013869956804
86.7465808391571,16.734182500000003,8.46134586928011
86.7465808391571,12.609072500000025,8.372847838397163
86.77653789520264,12.949403500000017,11.76776476689448
86.77653789520264,3.124686500000024,-3.1679070846735184
86.77723097801208,8.424124500000005,-4.803192502958401
86.77723097801208,12.496875500000016,4.37362363424387
86.77796697616577,17.332566500000013,16.11874580490251
86.77796697616577,9.8191075,7.935798263473015
86.79221892356873,10.56334750000002,6.47071812706781
86.79221892356873,-3.3303804999999898,-5.077457483664106
86.80584192276001,-17.325086499999983,-11.008724649110023
86.80584192276001,-11.367425499999996,-10.500368301061178
86.80655193328857,0.3758595000000184,-0.6068426401951977
86.80655193328857,5.555621500000001,7.077351315124231
86.82019400596619,19.85325850000001,31.96989365808825
86.82019400596619,30.35863750000001,29.335813512581268
86.83584094047546,32.37444350000001,16.558283448732986
86.83584094047546,43.3921895,29.08204410974274
86.8365249633789,10.196837500000017,0.7241389162873784
86.8365249633789,22.983555500000023,10.721904354633992
86.85020995140076,19.430650500000013,1.664675738904517
86.85020995140076,18.013228500000025,5.378025786869848
86.86592292785645,5.118053500000002,2.1436411948802494
86.86592292785645,9.519915500000025,0.5573306785028329
86.86665797233582,16.2666945,3.9171753129140097
86.86665797233582,12.89704450000002,6.61506945422993
86.88019704818726,8.753235500000017,5.415112631573977
86.88019704818726,12.680130500000018,3.8839920747113297
86.89580798149109,11.99572950000001,-1.955825473729572
86.89580798149109,-1.0453024999999911,-2.962501500871501
86.89651799201965,-11.288888499999985,-6.069750884284064
86.89651799201965,-0.0317894999999737,3.5438087469958544
86.91025495529175,5.828634500000021,-2.4174182889308966
86.91025495529175,7.2011775,1.2630629047707815
86.92590188980103,0.970504500000004,-2.455210162671737
86.92590188980103,10.683024500000016,9.666045130809144
86.926687002182,11.445963500000005,4.041722402558508
86.926687002182,4.141939500000007,-1.8512757263759667
86.94015598297119,2.563701500000008,2.500344456893333
86.94015598297119,10.080900500000013,3.0696552350804094
86.95564103126526,12.904524500000008,3.7753101181465
86.95564103126526,3.749249500000019,-2.194528581067293
86.97090601921082,-2.683378499999975,-1.9488171904814688
86.97090601921082,-8.323147499999976,-15.775714919636066
86.97170901298523,13.155098500000008,3.2320631892791685
86.97170901298523,10.727903500000023,4.766171410474176
86.98585200309753,-2.6796384999999816,-0.7064599619062522
86.98585200309753,-1.2248175000000003,0.2202625590164741
86.98676204681396,4.385032500000023,-2.60959071562601
86.98676204681396,-3.4724974999999745,-13.060396206708331
87.0001928806305,-4.186818499999987,-9.149254075422464
87.0001928806305,-7.085240499999998,-13.42333786300933
87.0158748626709,10.387572500000005,1.6736722240551227
87.0158748626709,15.559853500000004,8.342725331688047
87.0165388584137,1.3706735000000094,2.571445581824888
87.0165388584137,3.483716500000014,3.488390170151804
87.03026795387268,14.5538205,7.1031631076237005
87.03026795387268,0.8283875000000194,-4.137649126987832
87.04591798782349,-9.471296499999994,-5.06970845280701
87.04591798782349,-8.188510499999978,-7.650693022629398
87.04652190208435,10.069680500000004,2.054349672371675
87.04652190208435,1.8007615000000214,-2.968945369615354
87.06023287773132,-16.442470499999985,-5.894250902482295
87.06023287773132,-1.8979994999999972,6.548254252615568
87.0759060382843,10.140738500000026,4.950955632065783
87.0759060382843,0.1365065000000243,-2.515137239961676
87.07656383514404,-2.3841864999999984,8.109349029093115
87.07656383514404,-2.271989499999989,0.9399190310711338
87.09016799926758,4.153158500000018,-3.459335215151314
87.09016799926758,1.5838475000000187,-0.6318027936923669
87.10583400726318,-1.7072644999999795,-0.7718951649635619
87.10583400726318,-2.4440244999999834,-3.6479979358112575
87.10651803016663,16.218076500000024,5.5876851692187
87.10651803016663,11.962069500000013,5.172489506059172
87.12021493911743,-1.3332744999999877,0.3280710533969184
87.12021493911743,10.200577500000009,2.245001154883345
87.13593983650208,21.6371915,3.894192139938699
87.13593983650208,21.925163500000025,8.040421999143247
87.13656783103943,6.26620250000002,-2.6721112289944724
87.13656783103943,9.071127500000015,-1.2292420191977698
87.15018701553345,19.88317850000001,-5.309398085617925
87.15018701553345,18.645271500000007,-2.360818077259154
87.16584396362305,9.441377500000016,-3.051050615780568
87.16584396362305,8.5101425,-11.034818678146769
87.16654205322266,20.39928450000002,-4.99342553855837
87.16654205322266,23.3986845,0.7124112573791379
87.18013596534729,14.217229500000002,0.6640412760833598
87.18013596534729,14.07137350000002,-4.8811428242714
87.19591999053955,16.535967500000027,-9.615567211854485
87.19591999053955,15.114805500000015,-1.7978783086100236
87.19658303260803,8.813074499999999,-0.3538861714464794
87.19658303260803,22.42257050000001,7.06749283650942
87.21013689041138,24.700169500000012,4.828745579314457
87.21013689041138,20.5301805,5.997457540150453
87.22594094276428,14.086333500000023,2.606046611106496
87.22594094276428,13.996575500000006,-1.8280314967473537
87.22657895088196,12.811027500000025,-7.733962310061901
87.22657895088196,12.579153500000018,-1.0839155385737609
87.24020385742188,6.011889500000024,-3.568792987416961
87.24020385742188,16.60702550000002,5.245348138488359
87.2559289932251,16.18815650000002,0.2510498210798175
87.2559289932251,17.98330850000002,2.7945215296425765
87.25674200057983,8.917791500000021,-3.115121534443958
87.25674200057983,18.723809500000016,4.219629047004638
87.2701940536499,11.932150500000006,-1.4898779028409417
87.2701940536499,21.31555950000001,6.972501684921365
87.28599500656128,11.371165500000018,-0.1791978360259811
87.28599500656128,15.701969500000018,8.23750530150233
87.286780834198,29.060892500000023,14.589859665992527
87.286780834198,8.865432500000026,-6.009687908031907
87.30228590965271,2.3093885000000114,-10.123885512347488
87.30228590965271,13.7310425,1.8221320756683
87.30229496955872,13.957306500000016,-3.460512186429036
87.33174586296082,23.5838095,1.974095109632536
87.33174586296082,7.180607500000008,-5.048556895179559
87.33227491378784,13.759091500000013,2.654419375471626
87.33227491378784,27.069395500000013,5.649909173942852
87.33296203613281,20.805063500000017,1.3688570936291669
87.33296203613281,12.28183150000001,1.3375092385538494
87.34524989128113,21.0818165,10.309110401941211
87.34524989128113,19.78033050000002,2.857192406825249
87.36083698272705,23.86430150000001,2.7004819451695
87.36083698272705,18.003878500000013,6.3570638916850974
87.36164402961731,11.410434500000008,0.7331506265016294
87.36164402961731,26.044663500000013,4.251847193582158
87.37536001205444,25.80530950000002,8.217014712036068
87.37536001205444,5.692127500000026,-8.01241214730501
87.3910620212555,19.41008050000002,7.090339137641417
87.3910620212555,30.78311650000001,6.552240117173383
87.3915388584137,22.188826500000005,2.1732422408291896
87.3915388584137,21.803616500000004,9.81212073282093
87.4051878452301,22.85078850000002,6.101760085649964
87.4051878452301,24.305609500000003,-0.9020699982361436
87.42089295387268,23.714705500000008,3.018784329965772
87.42089295387268,7.517198500000006,-2.016166015565233
87.4216239452362,9.847156500000011,-4.466752873896516
87.4216239452362,15.0568375,-4.532384549619227
87.43529200553894,31.639553500000005,9.90844504586358
87.43529200553894,15.314890500000018,4.70761221003132
87.45103001594543,26.669226500000008,10.35732811517274
87.45103001594543,19.200646500000005,-2.181028995906381
87.45155692100525,28.584055500000005,8.72880660135845
87.45155692100525,8.489572500000008,-4.474590133511278
87.46538996696472,19.3876415,3.3737356349271863
87.46538996696472,30.64100050000002,6.740777453950109
87.48093485832214,26.407433500000025,10.066944277910046
87.48093485832214,8.418514500000015,-2.9004167607770164
87.48169302940369,21.036937500000025,5.762680964455591
87.48169302940369,28.59153550000002,4.51852348605998
87.49522590637207,27.275090500000005,8.884982041826277
87.49522590637207,8.994459500000005,-5.618396868764034
87.51100897789001,22.8620085,4.092892104959844
87.51100897789001,26.306456500000024,3.887783379099432
87.51161098480225,12.079876500000012,-6.494504515827455
87.51161098480225,5.826764500000024,-3.556764830352126
87.52519989013672,20.090742500000005,-1.283817978063734
87.52519989013672,25.999784500000004,3.302243389582109
87.5409779548645,19.8065105,3.261159234475436
87.5409779548645,1.2940055000000257,-10.056043813591948
87.54168605804443,5.546271500000017,-13.797940294007866
87.54168605804443,18.344209500000005,-4.305355820912531
87.55522394180298,22.121508500000004,4.94665358906164
87.55522394180298,9.802277500000002,-2.9954017451655446
87.57099986076355,15.161554500000022,-1.4974188451993695
87.57099986076355,25.64449350000001,4.700376348771972
87.57161784172058,12.31549050000001,-2.232962361346404
87.57161784172058,9.286171500000023,-2.1693972766317327
87.58535289764404,7.090850500000016,-10.074245347128752
87.58535289764404,16.687433500000026,-4.64998320164419
87.6009418964386,22.4767985,8.66958479151661
87.6009418964386,11.574990500000013,-0.2013757691323441
87.60324001312256,20.98831850000002,6.780142869237329
87.60324001312256,23.363155500000005,3.685368722648136
87.61538290977478,19.305363500000027,2.36744802914491
87.61538290977478,10.1388685,-0.6196816758956132
87.63102889060974,11.825563500000015,-2.31781145363618
87.63102889060974,21.018237500000023,0.7870712607273695
87.63162684440613,9.918214500000005,-9.772935116533986
87.63162684440613,1.1780685000000233,-8.815189379349254
87.6452169418335,13.10460950000001,-1.6976702379529236
87.6452169418335,18.51998450000002,-4.184176509071257
87.6609718799591,13.504778500000016,-2.4100938433781884
87.6609718799591,4.615036500000002,-0.2910551243459949
87.66172504425049,12.049957500000003,1.8735241405884508
87.66172504425049,26.2877565,6.731020285959364
87.67516589164734,18.35168950000002,3.2374118146006587
87.67516589164734,14.727726500000015,7.512519526710535
87.69059586524963,12.816637500000011,2.0204639536481146
87.69059586524963,28.19510550000001,10.823299165622927
87.70598602294922,16.896867500000013,4.90048204854631
87.70598602294922,8.915921500000024,1.8580610877362016
87.70660400390625,19.34276250000002,4.1478615227335744
87.70660400390625,21.00701850000001,1.8778453883279769
87.72095584869385,20.51709150000002,4.694188945853604
87.72095584869385,8.010865500000023,-3.150294658552511
87.72166204452515,8.949580500000025,-10.815377055824154
87.72166204452515,26.534590500000007,1.134991719949479
87.73529100418091,14.305117500000025,-8.066563748581878
87.73529100418091,0.8601765000000228,-9.351525920903264
87.75098705291748,-3.2911114999999995,-16.133056607000206
87.75098705291748,20.25529850000001,-2.6734168212805898
87.75164985656738,15.23635250000001,-2.73901872479491
87.75164985656738,6.223193500000008,-5.782941023474622
87.76512789726257,8.672827500000011,-5.361073362955073
87.76512789726257,21.71011950000002,3.0147687327844537
87.79731583595276,8.856083500000011,-7.693401671260652
87.79731583595276,-8.407295499999975,-13.482106324318856
87.797926902771,-18.26941149999999,-23.896678451054584
87.797926902771,-14.907241499999984,-27.296800282984695
87.79883098602295,-7.820130499999976,-15.11173789811281
87.79883098602295,-10.748472499999991,-7.647922623146219
87.79954099655151,14.701546500000006,21.3681916245274
87.79954099655151,29.84066150000001,26.132776974611488
87.8103859424591,30.3829475,17.5583662970635
87.8103859424591,12.36036950000002,0.342845656230125
87.8297369480133,12.711919500000022,-0.8812418633550205
87.8297369480133,14.196660500000007,-11.271496837960974
87.84091305732727,14.076983500000011,-7.879184183789338
87.84091305732727,-20.42733349999999,-28.74556180479302
87.84160089492798,-1.114490499999988,-2.7345338811757145
87.84160089492798,15.273751500000005,-0.5222842560515844
87.85524392127991,16.216206500000027,-0.353827413039685
87.85524392127991,-6.765479499999998,-9.865957002090232
87.88733887672424,6.6308425,3.232598982309969
87.88733887672424,12.547364500000016,-5.4836172863481885
87.88808798789978,25.2966835,8.499275250116604
87.88808798789978,0.4263485000000173,-6.115812645149187
87.88883304595947,10.707333500000004,11.26234203796111
87.88883304595947,15.539284500000008,6.606444897903296
87.88950490951538,11.354336500000016,8.356657891280404
87.88950490951538,-1.585717499999987,3.9560171741347303
87.90028405189514,4.4654405,-1.9457323041049688
87.90028405189514,13.7142135,0.3125786420840963
87.91525483131409,2.255159500000019,-8.488656080898236
87.91525483131409,-7.655575499999998,-5.8635574152556496
87.93104290962219,2.561831500000011,-6.1126508125871055
87.93104290962219,17.88794150000001,7.4570542537074225
87.93167400360107,5.912781500000023,-3.358363504603304
87.93167400360107,2.068164500000023,3.604822317174888
87.96170091629028,2.767525500000005,-1.3270821315914896
87.96170091629028,14.129342500000009,2.943408706772248
87.96223402023315,11.20100050000002,3.273410106220025
87.96223402023315,-7.577037499999989,-6.8552088767536015
87.96301794052124,-0.669442499999974,-5.600032506299444
87.96301794052124,16.186286500000023,0.9200629147554906
87.97530388832092,10.744732500000026,6.243039309662311
87.97530388832092,-7.405001499999997,-5.776627996022247
87.9909770488739,-0.8414774999999963,-4.797249081531143
87.9909770488739,10.486679500000008,2.620017135427089
87.9923050403595,6.054898500000007,2.789874394781244
87.9923050403595,-8.6616085,-6.786880683680811
88.0051908493042,7.109549500000014,2.6937953343731937
88.0051908493042,17.6598075,7.049039581578878
88.02085185050964,16.448079500000006,12.721903064946474
88.02085185050964,-16.47799949999998,-10.33746139030992
88.02163290977478,0.3291115000000104,3.450858593519076
88.02163290977478,17.2745975,8.334703066835539
88.03523087501526,6.114736500000021,0.4637989763332442
88.03523087501526,-2.539392499999991,5.54343875949413
88.05089402198792,-4.921708499999994,-2.1808934184014475
88.05089402198792,-3.5753445,-7.074826774134007
88.051677942276,-4.910488499999985,-5.754197876687873
88.051677942276,-5.0376454999999964,-0.2671504966210989
88.06532001495361,5.187241499999999,9.925517832264036
88.06532001495361,11.421654500000017,7.363069638558705
88.08101892471313,-1.0471724999999878,1.264124602131655
88.08101892471313,-3.242493499999995,11.971978752677073
88.08165788650513,2.771265500000027,9.56929043415096
88.08165788650513,15.931973500000026,13.401827851677776
88.09525203704834,8.97575950000001,5.719487626834274
88.09525203704834,-6.746779499999974,1.0392391451068717
88.11100101470947,5.516352500000011,6.802332287590927
88.11100101470947,13.50103850000002,3.1501312202189773
88.11171197891235,13.990965500000016,7.1354101999755
88.11171197891235,4.719753500000024,4.99783749458086
88.12670493125916,14.192920500000014,9.211738203251416
88.12670493125916,21.1678335,7.43237787828504
88.14097905158997,17.7084265,6.95414493631816
88.14097905158997,-1.256606499999975,-2.772822827573953
88.14156603813171,15.187733500000007,3.50935499157373
88.14156603813171,15.86839550000002,-6.477584466664837
88.15526986122131,19.86260850000002,6.627632820046724
88.15526986122131,5.920261500000009,-2.401875979677831
88.17114591598511,11.025225500000005,-0.9709299364222908
88.17114591598511,25.169526500000018,5.233085193164481
88.17166495323181,12.921354500000009,0.9570840549385586
88.17166495323181,2.797445500000009,3.5749525884880544
88.18517398834229,8.766325500000022,-0.5474635936313668
88.18517398834229,9.54048450000002,-8.397994990920175
88.20084404945374,1.8774295000000047,-7.833607794217697
88.20084404945374,-2.5169524999999737,-4.153194921875267
88.20153403282166,7.214266500000008,-2.561781804572636
88.20153403282166,26.2017395,10.111489784429107
88.21542286872864,20.4796925,14.505755422406155
88.21542286872864,-5.060084499999988,-1.4535294427185406
88.23103189468384,3.1489955000000123,-4.204583913881347
88.23103189468384,24.9264335,10.11051345859548
88.23164486885071,-0.7255404999999939,-8.148596878006224
88.23164486885071,-8.16420149999999,-7.9072957660985885
88.2616879940033,6.499946500000021,-4.563814278937489
88.2616879940033,29.90424050000001,14.343678788338488
88.2623519897461,24.402847500000007,18.607624468908817
88.2623519897461,-5.385455499999978,-3.4926622916718983
88.2630398273468,0.5722045000000264,-0.9016631879783656
88.2630398273468,30.62978050000001,12.05994246521974
88.2751829624176,9.480646500000006,0.9953694839763204
88.2751829624176,-11.642308499999984,-7.811050315955634
88.29106783866882,11.35807650000001,4.74785133009479
88.29106783866882,31.201985500000006,12.320852202874471
88.29223585128784,15.898314500000026,8.836609014131483
88.29223585128784,-9.001939499999992,-5.724094472542043
88.30589294433594,5.224640500000021,1.2594648500835603
88.30589294433594,35.20741850000002,18.245485048235565
88.30677103996277,15.821646500000014,5.019385358845828
88.32033801078796,-9.280561499999976,-4.25693807723358
88.32033801078796,8.596160500000025,6.678771366526235
88.33606195449829,32.05655250000001,11.877413019686625
88.33606195449829,17.897291500000023,6.487067528982884
88.34204602241516,-12.803547499999992,-6.392075390300512
88.34204602241516,3.147125500000016,2.3605689590036345
88.35027289390564,31.08043850000001,11.491689236383536
88.35027289390564,19.385771500000004,5.5334199794626375
88.36594104766846,-4.209257499999978,3.967398929036264
88.36594104766846,-0.8583074999999951,1.716363925797472
88.36660385131836,13.469249500000018,-3.1736943948256844
88.36660385131836,13.667464500000024,-2.481106299689209
88.38024306297302,-3.779168499999997,0.8665040547208287
88.38024306297302,18.30120050000002,19.824613071719178
88.3960828781128,17.489642500000002,-1.302179891640197
88.3960828781128,14.30698750000002,2.227959388514712
88.39674997329712,-4.003562499999987,1.7713164448288587
88.39674997329712,8.78315550000002,7.812988337406228
88.41033887863159,29.419922500000013,11.992682642423578
88.41033887863159,12.6913505,5.422599770418573
88.42561602592468,-12.605332499999989,-5.734028083157083
88.42561602592468,4.407472500000012,4.933791263982208
88.44111704826355,30.11928450000002,10.909765324619553
88.44111704826355,17.500861500000013,10.453369130090572
88.44169187545776,-9.37779949999998,-3.7382581811979296
88.44169187545776,-1.688564499999984,-9.5017191046192
88.45593786239624,35.437422500000025,20.424634282220477
88.45593786239624,13.330873500000024,7.465314652742491
88.45662903785706,-13.585186499999992,-5.918160718319223
88.45662903785706,8.857953500000008,5.021445241329855
88.4703369140625,33.45901450000002,13.15170897105112
88.4703369140625,17.773874500000005,6.572856257992925
88.48594093322754,-7.653705500000001,-0.6098777071850554
88.48594093322754,5.578060500000021,5.353703274760603
88.486732006073,24.03072750000001,4.234772153063975
88.486732006073,8.872912500000012,-4.418717794287112
88.50039505958557,-22.848918499999986,-13.959920325071442
88.50039505958557,1.0640015000000176,0.3991704253663477
88.51602983474731,22.95363550000002,0.4903620143963678
88.51602983474731,15.95254350000002,6.771817199594864
88.5167338848114,-21.54369349999999,-9.853673718216813
88.5167338848114,12.893305500000023,14.977013195291086
88.53508496284485,28.451288500000004,2.543245366087074
88.53508496284485,15.462616500000024,0.9237039487818706
88.54606485366821,-6.767348499999997,8.523783980175017
88.54606485366821,-2.530042499999979,-0.122042370063113
88.54713892936707,26.929149500000022,3.9521960139232455
88.54713892936707,14.606179500000025,-2.956994579731134
88.5608389377594,-10.0547215,-1.4229716558745853
88.5608389377594,7.470450500000027,6.990544518838567
88.57600092887878,30.7513275,7.696778185692931
88.57600092887878,11.674097500000016,1.400905354633469
88.57670283317566,-14.441623499999992,-3.527932545718098
88.57670283317566,14.512681500000014,12.889594344234869
88.59020686149597,27.306879500000008,6.175074869359978
88.59020686149597,14.131211500000006,3.146322695752985
88.60589289665222,-18.37599849999998,-11.834792564712735
88.60589289665222,4.396252500000003,-0.9185818726041886
88.6067419052124,18.435836500000025,-3.303696747415742
88.6067419052124,9.905125500000024,-1.3387589055784108
88.62022995948792,-17.65793749999999,-11.600998381997933
88.62022995948792,-6.56913449999999,-10.188949329756872
88.63594102859497,24.554313500000006,5.7886102722895565
88.63594102859497,13.297214500000024,5.261094756413598
88.6366319656372,-16.39759149999999,-10.565719068728685
88.6366319656372,4.557068500000014,2.3538700303713496
88.66932487487793,24.621631500000007,6.651536686921073
88.66932487487793,14.84553250000002,14.916466005613293
88.66950583457947,-9.796667499999984,1.325981747289262
88.66950583457947,7.878099500000019,7.95744563797786
88.66962003707886,29.50594050000001,15.900316523566069
88.66962003707886,16.947356500000012,12.263039327261062
88.68027806282043,-8.86917249999999,-1.4578022128689856
88.68027806282043,1.351973500000014,-1.6064019209259577
88.69603490829468,30.3174985,8.144258763412278
88.69603490829468,15.032527500000016,2.236077918387764
88.69658398628235,-18.114205499999983,-11.472959145516644
88.69658398628235,7.204917500000022,5.098972222650966
88.71022701263428,33.021446500000025,8.572524065807514
88.71022701263428,8.0576145,-2.090931854343664
88.72627401351929,-29.270327499999997,-20.567957651479414
88.72627401351929,4.45983050000001,-7.694353896806367
88.72663593292236,34.263093500000025,8.02710762809367
88.72663593292236,13.65250450000002,3.7038089264244167
88.74028992652893,-16.880038499999984,-3.2866283846636755
88.74028992652893,5.2676495000000045,-6.551504626672713
88.7576379776001,14.44162350000002,-14.806579044596177
88.7576379776001,-1.4342514999999878,-8.02441428408857
88.7576470375061,-46.35792949999998,-22.152571168453388
88.7576470375061,-24.83854549999998,-24.73999449200357
88.77031302452087,6.9954825000000085,-8.633864031593303
88.77031302452087,-0.076667499999985,11.210574785122647
88.78591299057007,-10.731642499999992,15.68217931975548
88.78591299057007,22.265494500000017,6.781546868174033
88.78659296035767,46.791758500000014,5.68319587495256
88.78659296035767,33.14860350000001,18.97848752989709
88.80029106140137,-17.003455499999987,-8.354418768068896
88.80029106140137,2.0812545,-9.537198215818432
88.81595301628113,17.1231315,-16.80462872645692
88.81595301628113,6.913205500000004,6.745342692293387
88.81670784950256,-25.096598499999985,-5.377331524185454
88.81670784950256,6.1502655000000175,2.154179618304497
88.83037400245667,21.97752250000002,-7.886940157588846
88.83037400245667,10.780261500000025,8.993962032067207
88.84590888023376,-18.63031149999999,-3.4288532405599383
88.84590888023376,-2.200931499999996,-12.642032023722674
88.8466010093689,23.043393500000008,-9.65423458053364
88.8466010093689,18.9519435,7.175936214722729
88.86024403572083,-22.48240849999999,0.1642557513840188
88.86024403572083,6.213843500000024,13.874769140270612
88.87589693069458,24.124224500000025,4.023395468119443
88.87589693069458,4.471050500000018,-1.6166028851197751
88.87664198875427,-23.645517499999983,-1.797910624121286
88.87664198875427,9.8378065,13.358263243610338
88.8903079032898,20.39928450000002,-1.318922198923545
88.8903079032898,12.425817500000022,2.044494078779701
88.90595698356628,-15.64213149999999,-7.628267095496573
88.90595698356628,8.382985500000018,13.407417025303667
88.90669298171997,21.21084250000001,2.5573553909908853
88.90669298171997,10.993435500000004,0.1621588364629129
88.92027497291565,-14.856752499999985,-3.5352833207228205
88.92027497291565,-7.807041499999997,-1.5196219277506264
88.9359929561615,21.06124650000001,11.98649591938018
88.9359929561615,2.4215855000000204,-6.7686716582361655
88.93680191040039,-35.55709849999998,-25.301344964655847
88.93680191040039,-10.136998499999976,-13.053889305173662
88.95031785964966,24.24764150000001,9.318658215078926
88.95031785964966,-1.5090494999999748,-16.30921958402758
88.96588897705078,-22.88631749999999,-11.294139069553658
88.96588897705078,-3.1172064999999805,-1.6003052171081085
88.96662998199463,8.528841499999999,-2.7381470079222083
88.96662998199463,0.8957065000000171,-6.251525017575119
88.99660801887512,-28.96739549999998,-14.40537019473749
88.99660801887512,-5.495783499999988,-0.6363034546429409
88.99727988243103,11.842393500000014,-3.477951872754847
88.99727988243103,-2.9115124999999864,-1.147323231792324
88.99805688858032,-25.234974499999996,-8.212356667577943
88.99805688858032,-6.307341499999978,-0.6186823341759569
89.01019597053528,12.8259865,-8.782964027360862
89.01019597053528,-6.834667499999995,-1.1533663625867678
89.02589893341064,-31.009380499999992,-2.333790011011068
89.02589893341064,-11.827433499999984,-6.859305129333899
89.02672386169434,11.311327500000004,-2.945053754051834
89.02672386169434,-15.253181499999982,-6.71106660200816
89.04023289680481,-33.29445949999999,-1.3439567815450817
89.04023289680481,-37.36347049999999,-26.87926665821085
89.05617189407349,20.302046500000017,3.315980249518809
89.05617189407349,-1.0266024999999956,-6.658072287096156
89.05662298202515,-34.26309349999998,1.95577157090834
89.05662298202515,-16.37889149999998,0.4680950494905502
89.07023286819458,19.871958500000005,1.1550480498733364
89.07023286819458,5.454644500000001,1.9818256591232772
89.08600997924805,-25.42196949999999,1.0605093340446743
89.08600997924805,-0.6301734999999837,5.962987234114852
89.08674192428589,28.84397850000002,-2.808752474463244
89.08674192428589,11.763855500000004,-4.004427686591242
89.10026097297668,-16.348972499999988,6.765783728776594
89.10026097297668,0.5852945000000034,3.1241094101352767
89.11589002609253,25.47058850000002,-19.9214536687834
89.11589002609253,2.526302500000014,-16.48695639027236
89.11677503585815,-17.97582949999999,0.7002057381806353
89.11677503585815,3.491196500000001,-4.6238326434825705
89.1301908493042,22.961115500000005,-22.717199539446497
89.1301908493042,6.217583500000018,-10.64224199532446
89.14595794677734,-15.346679499999992,-10.33107140771846
89.14595794677734,4.919838500000026,-14.972151955571816
89.1475260257721,23.084532500000023,-13.876290008799664
89.1475260257721,14.609919500000018,-0.7356618440501244
89.16017699241638,-16.143278499999994,-3.04660487178494
89.16017699241638,3.274282500000026,-7.1374146603159865
89.17592597007751,38.9753675,0.9551516393396966
89.17592597007751,8.252089500000011,-6.068593269566449
89.17666101455688,-16.83515949999999,-8.072065587691217
89.17666101455688,0.0804075000000068,-17.39196287858718
89.190358877182,27.82672550000001,-6.715005669262204
89.190358877182,15.316760500000017,6.61583784649998
89.20601797103882,-16.988495499999985,-10.840966865085866
89.20601797103882,1.9540975000000171,-9.00316705493789
89.20672798156738,28.61210450000001,0.3143975772702845
89.20672798156738,1.580107500000025,-10.112057494927178
89.2201669216156,-19.913097499999992,-7.876543566797824
89.2201669216156,0.3908195000000205,-7.421507672466775
89.23591685295105,27.766887500000024,-7.269217389581854
89.23591685295105,11.82369350000002,1.1761163849533816
89.23671889305115,-25.515467499999986,-9.535669380864146
89.23671889305115,0.3795995000000118,-8.41746612326202
89.25036597251892,24.849765500000014,-4.838952507776597
89.25036597251892,3.973643500000009,-0.1624518967642227
89.26595997810364,-14.134951499999984,4.105571392458135
89.26595997810364,0.9106655000000216,-3.448395247988844
89.266676902771,20.919130500000023,-8.558773306903628
89.266676902771,1.632466500000021,-11.090327556590845
89.28039383888245,-17.369965499999992,4.674249109993841
89.28039383888245,-0.9630244999999888,-1.0978943431335615
89.29596996307373,23.264047500000004,-6.389481007725131
89.29596996307373,4.5383685000000185,-1.5032651484776896
89.2967369556427,-21.37165849999998,-0.4216390940643393
89.2967369556427,1.819461500000017,-3.3742522251279228
89.3110408782959,24.11674450000001,-1.165267631012895
89.3110408782959,10.89993850000002,9.462252939111304
89.31178188323975,-22.349642499999987,-3.121163969492759
89.32529187202454,7.150688500000001,5.830309469820731
89.32529187202454,18.852835500000023,-5.70211790972364
89.34102702140808,11.178560500000003,7.291826743739765
89.34102702140808,-28.729911499999982,-16.02974395124977
89.34276986122131,-8.463393499999995,-9.875719460148744
89.34276986122131,23.77454450000002,-1.5320975669896946
89.35541892051697,16.077829500000007,11.682763716458464
89.35541892051697,-17.981439499999993,-5.157687543051569
89.37090492248535,17.7607845,14.62168179741442
89.37090492248535,39.0258565,14.825487271549845
89.37169098854065,1.615636500000022,-2.572625471813213
89.37169098854065,-18.998691499999996,-0.8938290095359704
89.38521099090576,0.3478105000000084,-4.091224704135874
89.38521099090576,30.17351250000001,2.7905793354704898
89.40110182762146,11.1636015,2.564001226971639
89.40110182762146,-12.913874499999991,4.154127693782904
89.40218901634216,3.399569500000013,2.4965494034922817
89.40218901634216,26.23165850000001,1.2163581608836471
89.41520500183105,8.493312500000002,-0.5905966236627265
89.41520500183105,-11.7171065,10.275278097090606
89.430979013443,11.085063500000018,7.101650097957739
89.430979013443,29.17869950000002,-1.842264338252228
89.43184185028076,4.330804499999999,-2.0621485737571223
89.43184185028076,-15.34854949999999,9.060728556604378
89.46169304847717,5.437814500000002,5.113805378663679
89.46169304847717,28.086648500000024,-3.3971478183748687
89.46241402626038,14.495852500000012,6.791611138308003
89.46241402626038,-10.191227499999997,8.760270716954217
89.46315598487854,6.9487345000000005,9.373346498563048
89.46315598487854,28.879507500000017,1.3324658898044142
89.4752779006958,18.16843350000002,5.370710081541803
89.4752779006958,-10.714813499999993,3.3881944026555875
89.49085402488708,6.114736500000021,6.911869243573679
89.49085402488708,34.470657500000016,7.227779314021706
89.49191284179688,14.35747550000002,2.539205492415324
89.49191284179688,-12.59224349999998,1.6681131668161946
89.5052330493927,6.4962065,1.0083308632622368
89.5052330493927,33.64040050000003,9.656179267839208
89.52096104621887,20.072043500000007,13.5514411049254
89.52096104621887,-11.2645785,1.8907735768269465
89.52168393135071,19.742931500000022,17.612647183810157
89.52168393135071,33.88723350000001,8.592678003837374
89.53525185585022,12.76801850000001,5.672521023448899
89.53525185585022,-8.414774499999993,7.080824547073089
89.55111598968506,14.869842500000004,10.38566951670596
89.55111598968506,28.509257500000015,-1.383050354668903
89.55188584327698,20.374974500000008,7.82820798130464
89.55188584327698,-15.879615499999986,-2.533119714155056
89.56538200378418,9.895775500000012,6.639257012694749
89.56538200378418,28.89446750000002,-0.2860473212753334
89.5810718536377,14.417314500000003,3.751408992657701
89.5810718536377,-16.93426749999999,-8.007654106921002
89.5816879272461,0.6918815000000222,-5.346012904196101
89.5816879272461,24.41406650000002,-7.059210141307563
89.59517884254456,18.602262500000023,6.379897441940631
89.59517884254456,-19.12584849999999,-4.815215775210607
89.61104989051819,-2.5805304999999805,-7.544560656756426
89.61104989051819,28.00811050000001,-0.1539727789607496
89.61173796653748,15.471966500000008,5.029914632197098
89.61173796653748,-2.97696049999999,14.28005044659152
89.62524390220642,15.580423500000023,18.76941821788145
89.62524390220642,26.88614050000001,7.367198035179186
89.64104104042053,10.957906500000009,-2.226880383926815
89.64104104042053,-9.061777499999977,7.118124868801473
89.64172887802124,13.961046500000007,14.27729004321603
89.64172887802124,26.893620500000026,3.0171732025123603
89.65525889396667,21.841015500000022,9.044076714603476
89.65525889396667,-13.714213499999984,1.3716642211368573
89.67091989517212,17.79818350000002,18.79271201012295
89.67091989517212,31.0037705,1.9445002365984188
89.67167782783508,16.38824150000002,1.2127717148668804
89.67167782783508,-8.467133499999989,7.481943457444679
89.68536305427551,9.50682550000002,7.264362050024474
89.68536305427551,32.623147500000016,6.100588689747013
89.70096588134766,19.282924500000007,0.6356771961524572
89.70096588134766,-6.851496499999996,5.209086306652601
89.7016339302063,3.253712500000006,-1.9257912233368888
89.7016339302063,28.92812650000002,-0.7119271384337793
89.71520900726318,14.709026500000022,3.358466349520439
89.71520900726318,-11.451573499999997,3.586938234058678
89.73098993301392,-18.32924949999999,-19.163412687837525
89.73098993301392,-8.407295499999975,-32.827304225497485
89.73170495033264,-29.780823499999983,-40.82585665046595
89.73170495033264,-40.129126499999984,-26.44895214280268
89.74526405334473,-13.557137499999982,-9.778763242719362
89.74526405334473,22.903147500000017,16.95247228933819
89.76105690002441,25.55847650000001,20.682425711407543
89.76105690002441,14.76512550000001,11.307770598133608
89.76172590255737,22.94054650000001,13.627772641678304
89.76172590255737,42.76575550000001,19.5745577635753
89.77525496482849,19.152027500000003,-0.1412041533580108
89.77525496482849,-20.412373499999987,-18.15461058230557
89.79087686538696,0.2019544999999993,-1.562317911018425
89.79087686538696,26.08954250000002,6.346133113729625
89.79193496704102,10.18374750000001,-4.225869539455456
89.79193496704102,-4.686094499999996,1.337683671594391
89.80525994300842,5.512612500000017,6.684831607005746
89.80525994300842,23.91666050000001,14.155210398852692
89.8207688331604,1.3875025000000107,-8.524758853318128
89.8207688331604,-1.1182304999999817,-0.2309738131349989
89.83596706390381,21.1491345,12.967764598555933
89.83596706390381,12.113535500000012,-3.883994159743562
89.83666706085205,10.209926500000025,6.986837752626528
89.83666706085205,-3.3958294999999907,9.3289473704595
89.85098505020142,14.54821050000001,15.288373357110506
89.85098505020142,21.5867025,1.3212339244607705
89.8516218662262,16.37328150000002,12.222087223484866
89.8516218662262,0.8601765000000228,8.011910801338804
89.86534786224365,13.927387500000007,12.673302935144225
89.86534786224365,11.399215500000023,-0.7101685433367937
89.88095903396606,24.245771500000014,24.80534390478073
89.88095903396606,3.4743675,3.678865051973812
89.8816590309143,9.690080500000022,10.719245553303187
89.8816590309143,18.39282750000001,8.101588621300726
89.8953788280487,0.9910734999999988,-3.7189519260091295
89.8953788280487,-2.303778499999993,2.0289807063007474
89.91094589233398,9.589103500000022,8.426254221748676
89.91094589233398,11.93028050000001,-1.9004965091819732
89.9117078781128,5.377976500000017,0.916609559917802
89.9117078781128,-1.3912424999999755,8.540123087581765
89.9252519607544,3.388349500000004,2.4003273054112304
89.9252519607544,6.312951500000025,-6.352320214363724
89.94089698791504,1.802631500000018,-2.021455188974735
89.94089698791504,5.475213500000024,15.451195856303196
89.94177889823914,0.8190385000000049,3.4290739492969644
89.94177889823914,7.098330500000003,-3.960508398280016
89.95528388023376,3.362170500000019,-0.0604463740407905
89.95528388023376,-2.3299574999999777,10.757692719825087
89.9709370136261,-2.08686449999999,-0.0545329440577262
89.9709370136261,-0.254313499999995,-10.34890691860288
89.97162199020386,3.534205500000013,5.033660765695009
89.97162199020386,-10.370742499999976,5.441049937488637
89.98543691635132,-2.0494654999999966,2.6319235329548
89.98543691635132,1.4249015000000045,-11.30696252426669
