time_s,raw_eeg1,nlms_eeg1
10.004159927368164,151.3799305,113.3705587377842
10.004159927368164,111.83796850000002,90.27924591737889
10.004749059677124,115.0131435,79.48805450466071
10.004749059677124,128.02799550000003,67.8400566419371
10.018476963043211,127.89709850000004,59.78733729876976
10.018476963043211,129.50525550000003,82.02208150305054
10.034103870391846,108.2214855,59.98762468855463
10.034103870391846,116.6923585,61.62912195849681
10.03474497795105,109.1901195,54.38664348386476
10.03474497795105,96.7175525,67.33919491565199
10.049015998840332,114.33622150000002,81.48889234318374
10.049015998840332,101.9534125,48.94123401217722
10.049756050109863,102.06373950000004,62.41677837581721
10.063623905181885,81.33347450000002,63.26144824759463
10.063623905181885,82.83317450000001,68.19693385233727
10.095363855361938,85.17809150000002,42.19728145851972
10.095363855361938,82.09641350000001,35.18641091795186
10.096148014068604,64.9452325,24.733473153797533
10.096148014068604,69.13392050000002,14.565539849482086
10.096880912780762,70.83183550000001,21.472137455366894
10.096880912780762,66.4898115,27.57347024338499
10.097611904144289,47.89876850000002,22.3409782669673
10.097611904144289,27.6808695,7.609045152563965
10.108304023742676,54.581969500000014,24.072189695383813
10.108304023742676,53.33284350000002,30.35125288528944
10.123445987701416,18.540554500000013,2.292562421492548
10.123445987701416,55.2102735,51.75069556405492
10.139098882675173,61.87851450000002,35.90912241745341
10.139098882675173,45.76702550000002,55.47225609514949
10.139904022216797,36.619230500000015,36.75101738646326
10.139904022216797,29.793912500000005,29.210989738588136
10.153509855270386,16.835159500000003,14.089896240353024
10.153509855270386,6.415798500000022,6.552818798265804
10.185353994369509,-9.41145849999998,3.5038008709491475
10.185353994369509,-6.950604499999997,3.357192510275894
10.18615698814392,18.49193550000001,6.191347410589199
10.18615698814392,23.40616350000002,42.57492523327929
10.186774969100952,-21.225802499999983,13.558150373759233
10.186774969100952,-1.512789499999997,28.2782098498998
10.187657833099363,-0.9218854999999736,20.339486053603075
10.187657833099363,-7.548988499999979,14.37479571455071
10.198447942733765,-25.493028499999998,12.065153165546723
10.198447942733765,-31.92565549999999,13.300746055124677
10.213404893875122,-30.90840349999999,0.2836146950524174
10.213404893875122,-53.80781049999999,-0.9570576341551912
10.229143857955933,-49.81359749999999,13.056350100577845
10.229143857955933,-48.34381649999999,16.5452467995038
10.229723930358888,-56.91940749999999,-9.330020221705212
10.229723930358888,-51.75460549999998,23.596378423118708
10.243347883224487,-50.595236499999984,40.180041491120974
10.243347883224487,-68.49813749999998,31.31993483221565
10.259119987487791,-53.21316649999999,49.496655189592346
10.259119987487791,-53.71431349999999,41.55561737634697
10.259788036346436,-47.8538895,71.24766687223648
10.259788036346436,-48.51959249999999,67.77057882226458
10.273429870605469,-46.78053849999999,47.592547567542525
10.273429870605469,-60.36759549999999,48.9213157110877
10.289024829864502,-56.04801049999999,57.14246435955633
10.289024829864502,-63.64374749999999,33.62756733352671
10.289794921875,-70.58874149999998,28.147386145981315
10.289794921875,-72.98601749999999,29.13996582259547
10.30501389503479,-68.23634449999999,40.20784111868794
10.30501389503479,-71.8827475,32.55604116277209
10.319053888320925,-66.81892249999999,29.36242308714904
10.319053888320925,-73.99953049999999,25.031188213695916
10.319743871688845,-71.92388649999998,32.95868285589545
10.319743871688845,-76.99519049999998,22.75269287485338
10.33341383934021,-83.91400549999999,10.980146522257726
10.33341383934021,-84.98735649999999,17.67282284088479
10.349374055862429,-82.93415149999998,20.538666892911507
10.349374055862429,-85.87371249999998,29.11585504929356
10.349783897399902,-100.0853325,4.908726208301289
10.349783897399902,-93.4058715,38.80436452508951
10.363340854644775,-83.84668749999999,62.19559873335446
10.363340854644775,-80.9632245,83.75298758357701
10.37901782989502,-56.68753349999999,84.58778834589661
10.37901782989502,-46.36914949999999,41.91333715625973
10.379652976989746,-44.51415949999999,8.313020551315105
10.379652976989746,-66.46363249999999,-28.1073500661209
10.40978193283081,-67.71649849999999,-49.38732022850181
10.40978193283081,-70.32320849999999,-37.614613468820686
10.410402059555054,-73.79383549999999,-16.791748982089793
10.410402059555054,-79.17555249999998,-31.319336589905703
10.411125898361206,-67.47340549999998,-20.12903338439471
10.411125898361206,-75.52914949999999,-16.604867492971806
10.423329830169678,-74.0144905,3.449205860397285
10.423329830169678,-76.05647549999999,-1.128311299639165
10.43901300430298,-73.23285049999998,-14.13482886734137
10.43901300430298,-78.6968445,-3.5105762415560946
10.439743995666504,-60.76028449999998,15.125785418530567
10.439743995666504,-75.68248549999998,-5.325605904652207
10.453374862670898,-70.66353949999998,6.718895481183921
10.453374862670898,-71.47509849999999,21.670154122245563
10.469094038009644,-61.30257049999999,36.06961988913813
10.469094038009644,-68.78984949999999,27.996304243225
10.46988606452942,-67.30136949999999,7.763808330101142
10.46988606452942,-57.29713749999999,17.825911458178695
10.483320951461792,-48.15308149999999,28.53636278754433
10.483320951461792,-72.08096149999999,8.128350798299152
10.49904203414917,-67.6529205,1.5143292671469908
10.49904203414917,-57.43925349999999,7.848936730524713
10.499721050262451,-53.617075499999984,19.629103647820287
10.499721050262451,-64.01399749999999,2.600487975517723
10.525219917297363,-66.94607949999998,-1.1037405497408486
10.525219917297363,-57.11014249999998,21.86440911830776
10.529031038284302,-60.55085049999998,17.439982861449963
10.529031038284302,-78.95489749999999,3.790933584026078
10.52976894378662,-58.43780649999999,11.906673555447496
10.52976894378662,-36.77256649999998,31.09969482978103
10.543365955352783,-35.65807649999999,44.875760362070025
10.543365955352783,-56.61273549999999,33.62868860544478
10.5590238571167,-54.51465149999999,24.590351615681087
10.5590238571167,-48.04836449999999,30.324428603072008
10.559712886810305,-49.04691749999999,34.62742241996553
10.559712886810305,-61.45216649999999,22.535036805536137
10.573354959487917,-59.19326649999999,19.23323765114233
10.573354959487917,-53.77041149999998,26.413234296081114
10.58905291557312,-46.19337449999999,36.09981146832665
10.58905291557312,-53.62829549999999,39.703223742787046
10.589797019958496,-44.02049249999999,43.76912775201342
10.589797019958496,-50.16888749999998,46.88931146596144
10.605142831802368,-39.68968849999999,53.09072819941648
10.605142831802368,-58.65846049999999,25.73457003167016
10.619207859039308,-57.46543249999999,23.436989206148567
10.619207859039308,-51.51151249999998,25.76746913939178
10.619907855987549,-39.49895349999999,40.779674855175145
10.619907855987549,-59.78791049999998,18.61940754299556
10.633496046066284,-39.54009249999999,41.53808959126462
10.633496046066284,-39.53261249999999,33.20377825623959
10.649003982543944,-29.07211249999999,54.35760030233939
10.649003982543944,-46.87403649999999,30.94729597117808
10.649821043014526,-43.35105049999999,13.201847730209892
10.649821043014526,-43.94569449999999,12.915890197129087
10.663535833358765,-19.296013499999987,32.29719762464136
10.663535833358765,-29.34512549999998,-4.778340082110134
10.679110050201416,-30.631650499999992,7.4019118841187534
10.679110050201416,-29.509680499999988,-5.417555860438586
10.679961919784546,-22.246794499999996,-10.746349877264365
10.679961919784546,-27.202162499999982,-15.413683813248916
10.693438053131104,-22.29541349999998,-27.785956859864108
10.693438053131104,-23.56323949999998,-24.71810461867025
10.709142923355104,-18.83974649999999,-28.330409325630384
10.709142923355104,-24.64033049999999,-45.33212208771257
10.709686994552612,-27.366717499999996,-48.80353707015318
10.709686994552612,-22.67314349999998,-55.45533670081517
10.739802837371826,-17.366225499999985,-55.106256772136334
10.739802837371826,-37.95063449999999,-61.609893071615225
10.74054193496704,-27.198422499999992,-59.16489185218557
10.74054193496704,-18.94072349999999,-50.8973183537516
10.741230010986328,-14.097552499999992,-35.649868874553114
10.741230010986328,-28.93373649999998,-53.96970246852149
10.7534339427948,-18.35355949999999,-43.49729286227144
10.7534339427948,-16.640684499999992,-39.17371814461762
10.769109010696411,-10.750342499999988,-23.533620869892808
10.769109010696411,-23.81755249999999,-36.45819514406876
10.769762992858888,-21.55865349999999,-40.698997904543184
10.769762992858888,-14.90911149999998,-28.787934572792807
10.783474922180176,-19.516667499999983,-23.42264946073087
10.783474922180176,-29.24040749999999,-32.39687744006431
10.79900598526001,-26.431742499999984,-33.432258874247445
10.79900598526001,-25.541646499999985,-26.511214337992893
10.799675941467283,-5.076914499999987,-10.969046644275686
10.799675941467283,-21.319299499999985,-19.57478530442768
10.81346082687378,-2.3056484999999896,8.208788018868672
10.81346082687378,-10.454890499999976,-1.7076845570637786
10.82906198501587,18.791127500000016,24.68885949299811
10.82906198501587,19.004301500000025,22.113212017013243
10.829828023910522,36.91842250000002,33.822031507643764
10.829828023910522,80.39475950000002,69.36703458759564
10.84338092803955,102.56862650000002,108.70147648965072
10.84338092803955,90.64956550000002,97.82472511860364
10.859096050262451,111.31251250000004,113.20574369790842
10.859096050262451,106.49926150000002,110.37516436708584
10.859686851501465,139.20842650000003,137.5779474258463
10.859686851501465,114.3306115,108.64003383959748
10.873335838317873,122.09090350000002,114.25115392381385
10.873335838317873,107.96156150000002,109.00425350499393
10.889081001281738,147.44368550000002,152.6060630290121
10.889081001281738,125.6213695,127.6208850762017
10.889822959899902,122.6705885,114.43976602001942
10.889822959899902,139.30566350000004,124.5761953749832
10.903353929519652,156.96547150000004,138.90156967804825
10.903353929519652,142.83612950000003,138.6574571425707
10.919540882110596,172.6281725,168.0603047556905
10.919540882110596,183.9525895,171.23626559064175
10.919700860977173,205.0157055,200.33085749350465
10.919700860977173,230.2712505,224.65454744752736
10.933457851409912,265.23557450000004,248.2830176661787
10.933457851409912,283.3479105,277.6698869958304
10.949043035507202,316.9621315,310.9167800820616
10.949043035507202,312.37701350000003,313.8916110599804
10.949722051620483,328.5520815,343.49688346743835
10.949722051620483,365.6855475,363.99986883785937
10.963351964950562,354.51072650000003,347.0754871696936
10.963351964950562,374.5640705,372.231830422023
10.979068040847778,328.72411650000004,318.1714497570359
10.979068040847778,347.6106115,346.4804347207849
10.979732990264893,376.14978750000006,367.1605779306067
10.979732990264893,371.2579985,360.6082523832574
10.993370056152344,360.6067635,344.204824453465
10.993370056152344,355.2661865,346.23040234660783
11.025455951690674,369.0701575,355.82230330103044
11.025455951690674,319.9203915,315.829807397828
11.026113033294678,313.3082485,296.08980866764006
11.026113033294678,309.2654165,281.666871822203
11.026891946792604,308.7306115,291.855390345617
11.026891946792604,290.4985985,260.6535276376654
11.027628898620604,289.5898035,254.88003654179263
11.027628898620604,275.6960745,243.07632788152347
11.03843593597412,267.95448250000004,226.97927698197407
11.03843593597412,247.11201950000003,220.43550749438543
11.05403995513916,248.4770835,214.5610694528562
11.05403995513916,226.0676025,187.58131069800984
11.054797887802124,221.79476650000004,162.4271921393839
11.068444967269896,186.1310805,127.23701998525328
11.068444967269896,167.77565150000004,123.6238395261324
11.08401584625244,178.72981850000002,126.2039110143626
11.08401584625244,166.39936850000004,86.59831568433091
11.0848388671875,139.74136150000004,87.00259405012314
11.0848388671875,125.72047650000002,65.73869589707238
11.098382949829102,118.4127125,69.32375591081262
11.098382949829102,109.8259025,63.47707705705108
11.114107847213743,94.2305195,51.185582431949264
11.114107847213743,68.71318150000002,34.73076174490519
11.11483597755432,45.31262750000002,10.30903177351042
11.11483597755432,24.95635250000001,12.513141981492934
11.128373861312866,-12.700700499999982,-20.30605898786546
11.128373861312866,-31.920046499999984,-32.5326137647222
11.144031047821043,-33.24397049999999,-43.03700131832844
11.144031047821043,-42.672258499999984,-43.89043505829156
11.14471697807312,-52.83356649999999,-36.46548502845158
11.14471697807312,-49.77058849999999,-33.949521270014
11.158407926559448,-74.06497849999998,-58.7812313929752
11.158407926559448,-72.19128849999998,-44.39267185663803
11.17410397529602,-93.7555525,-71.93405101226067
11.17410397529602,-82.52089249999999,-31.51120258082501
11.174834966659546,-77.86471749999998,-34.13961412939212
11.174834966659546,-83.6989615,-11.46459137194509
11.188339948654177,-105.60355549999998,-7.009765170852504
11.188339948654177,-103.6962065,-5.9254020487014
11.20403790473938,-106.1121815,-27.92176349201576
11.20403790473938,-99.3953215,-65.74247134482358
11.204848051071169,-118.3753135,-60.56883287654359
11.204848051071169,-118.69320449999998,-41.79152872429557
11.218340873718262,-112.3204155,-36.70961933547807
11.218340873718262,-109.4369525,-24.92933250642477
11.23402190208435,-116.78585549999998,-29.134803056951554
11.23402190208435,-125.4998225,-36.5889663593271
11.234786033630373,-126.99204249999998,-21.94568619065897
11.234786033630373,-125.69055749999998,-18.550069708620896
11.248420000076294,-133.96695649999998,-33.97056800149335
11.248420000076294,-129.0901265,-41.73956264175166
11.264181852340698,-129.65485149999998,-38.22607270849676
11.264181852340698,-127.2239165,-33.52275345660068
11.26485800743103,-142.66596349999998,-56.31345942251765
11.26485800743103,-152.2101885,-57.408708692868
11.294779062271118,-160.9204155,-35.81531025382951
11.294779062271118,-150.9947205,-0.9077293185543168
11.295609951019289,-168.78168549999998,13.592186050208426
11.295609951019289,-149.10607149999998,68.73316588078876
11.296231031417848,-119.3140285,116.70103497447816
11.296231031417848,-99.10360849999998,84.50538720491019
11.30836796760559,-107.09203549999998,9.500393263843335
11.30836796760559,-114.3549205,-50.91888913351475
11.324434995651243,-120.26770249999998,-89.12186716134656
11.324434995651243,-119.7590765,-89.33803359085113
11.324702978134155,-135.6573915,-82.34459704931274
11.324702978134155,-125.50730249999998,-76.77067169828314
11.338425874710085,-123.3456405,-68.2720422570834
11.338425874710085,-113.25165049999998,-27.07483985394083
11.354065895080566,-113.8500345,-30.941248480231337
11.354065895080566,-114.9420855,-26.67862789800131
11.35480785369873,-116.1500725,-39.373639844360696
11.35480785369873,-99.6346745,-9.077247553150542
11.368427038192747,-111.6883725,-28.880839314123307
11.368427038192747,-110.5925815,-34.092966347786955
11.384044885635376,-103.7710045,-36.83086899057447
11.384044885635376,-92.9327745,9.15765586070954
11.38481593132019,-108.8460485,39.11896708597871
11.38481593132019,-103.1240015,76.22478842777966
11.398494958877563,-97.6338285,70.83094065137004
11.398494958877563,-96.75121149999998,66.35376832123339
11.414062023162842,-102.9669255,66.12169840164064
11.414062023162842,-97.42439349999998,57.56098668444892
11.414828062057495,-95.7975375,42.32655546783279
11.414828062057495,-90.20264749999998,33.89699657830394
11.428348064422607,-101.1044555,9.082653822796075
11.428348064422607,-99.6645935,18.40013017498389
11.444087982177734,-85.15004249999998,29.348096771373665
11.444087982177734,-85.19866049999999,30.372303292631784
11.444838047027588,-91.7734055,30.4799376106633
11.444838047027588,-90.1428085,21.30753279736514
11.45836591720581,-85.6137895,20.11648873375296
11.45836591720581,-78.71741449999999,41.04520874406171
11.47403597831726,-96.25006549999998,14.88035509777734
11.47403597831726,-87.98488649999999,34.62752296806788
11.47474193572998,-88.8712425,30.806993160775235
11.47474193572998,-71.4133895,41.66915582793263
11.488314867019652,-91.20120049999998,45.53846991350487
11.488314867019652,-93.04871049999998,41.62441896554903
11.50399398803711,-75.59459749999999,61.928532940524775
11.50399398803711,-76.25282049999998,63.803096831067705
11.504830837249756,-86.61982249999998,74.42405518136972
11.504830837249756,-83.8186375,70.61431102819964
11.518365859985352,-81.92998849999998,82.3048302529283
11.518365859985352,-76.95966149999998,91.84927028856704
11.534060955047607,-87.72309349999999,85.63682687680627
11.534060955047607,-82.47227349999999,111.1924068593772
11.534689903259276,-78.01805249999998,112.5852000773328
11.534689903259276,-76.07704449999999,124.4108798379644
11.548316955566406,-84.54417849999999,122.2915109317588
11.548316955566406,-72.06413249999999,124.11466069915352
11.564043998718262,-76.27151949999998,136.76207612085477
11.564043998718262,-74.7456405,124.90191591776625
11.56471586227417,-75.6693955,116.4247305943271
11.56471586227417,-67.04144649999999,131.41174141445907
11.5783588886261,-71.16281649999999,103.33329181594964
11.5783588886261,-66.78339349999999,101.68898593406416
11.594003915786743,-72.35584449999999,94.23564420904034
11.594003915786743,-70.21662149999999,79.73325981344429
11.594696044921877,-68.45512849999999,60.02381964412122
11.594696044921877,-56.25557549999999,61.86665711751701
11.608449935913086,-62.64706449999999,32.315440875074
11.608449935913086,-67.96520149999999,16.01421887016552
11.62404990196228,-52.55681449999999,24.459980172879384
11.62404990196228,-49.51627549999999,6.929156066699967
11.624846935272217,-63.41748349999999,-7.049299110079247
11.624846935272217,-58.10308549999999,-9.833616883447071
11.638320922851562,-48.30828749999999,-12.529886995005548
11.638320922851562,-49.83790649999999,-17.759884527612826
11.654290914535522,-58.88472449999999,-21.93281770486366
11.654290914535522,-51.67793749999999,-25.10234677300177
11.65486192703247,-46.84224649999999,-27.85244171250782
11.65486192703247,-47.481769499999984,-21.002289010526205
11.66840887069702,-60.59011949999999,-37.50438512129307
11.66840887069702,-47.95299749999998,-21.280191960000685
11.684099912643433,-42.53388249999999,-30.69372447378911
11.684099912643433,-39.88229349999999,-24.442590282223826
11.68501901626587,-49.50505549999998,-27.07172604758663
11.68501901626587,-46.12792649999999,-23.0114264694494
11.698451042175291,-48.74211649999998,-30.44276361220045
11.698451042175291,-38.22177749999999,-30.789859788901115
11.71411395072937,-46.01572949999999,-22.16007675134697
11.71411395072937,-46.65525149999999,-20.202990986155253
11.714823007583618,-39.02211649999998,-13.07911709894536
11.714823007583618,-40.675151499999984,-6.468958406424804
11.728559017181396,-45.50710249999999,-3.011976424817071
11.728559017181396,-48.88797249999999,-4.95113687634565
11.74419403076172,-36.11247349999999,11.886146237002642
11.74419403076172,-34.30984249999999,4.492377497506553
11.744951009750366,-43.81292749999999,9.28838313605749
11.744951009750366,-42.7246175,20.308543519250502
11.75849199295044,-26.493451499999992,22.814233745256487
11.75849199295044,-41.28101549999998,20.34842512273478
11.774138927459717,-39.549442499999984,33.16912570149371
11.774138927459717,-31.77045049999998,36.46564938784118
11.774801015853882,-29.964078499999985,45.16593986035828
11.774801015853882,-29.612527499999985,42.570921267030045
11.788498878479004,-47.04046149999999,25.36443484913505
11.788498878479004,-33.48332449999998,41.10522080188741
11.804107904434204,-25.42010049999999,41.03992100601717
11.804107904434204,-27.286310499999985,40.363161404240174
11.804805040359495,-34.17146549999998,37.65407129905182
11.804805040359495,-26.35133549999999,43.00773464452756
11.81845498085022,-22.166387499999985,46.38455589470647
11.81845498085022,-34.82594849999998,38.34255724812189
11.834208011627195,-6.436367499999989,62.67863934285073
11.834208011627195,-14.49211249999999,56.46272951070098
11.83488392829895,-8.3773755,64.06509742415139
11.83488392829895,23.105101500000018,83.79669213802556
11.861840009689333,17.371835500000003,81.56883255243469
11.861840009689333,56.5360675,128.48817334341572
11.864084959030151,76.7128275,133.1969304141134
11.864084959030151,138.4548365,186.00180789723333
11.864753007888794,106.2542975,155.62744535807337
11.864753007888794,121.9057785,168.19745190436342
11.87842893600464,101.5382835,127.50690172737974
11.87842893600464,134.0828935,160.45957500997423
11.894223928451538,125.6307195,146.42089896151543
11.894223928451538,103.7223855,121.7259665942158
11.894886016845703,138.83256649999998,149.52594514157084
11.894886016845703,133.0843395,132.74509117995078
11.908464908599854,155.32926450000002,159.64650387814532
11.908464908599854,174.4027545,167.36707339615918
11.924118041992188,188.76023050000003,172.63066604383332
11.924118041992188,204.7258635,184.42678952951985
11.924733877182009,234.0055405,216.5789176167481
11.924733877182009,256.17566750000003,237.35742756334912
11.938302040100098,293.5971065,269.0934897777827
11.938302040100098,322.9441015,296.73426827892223
11.954087972640991,364.2699955,336.9291234725272
11.954087972640991,355.9449785,327.2490470777564
11.95473289489746,367.3441935,324.9162352689913
11.95473289489746,388.74016050000006,354.61460146135016
11.9683358669281,409.7957975,371.1925376787788
11.9683358669281,439.7299565,398.72172787283984
11.98412585258484,399.7018075,360.7108479380035
11.98412585258484,413.1392685,361.93689320588703
11.98476791381836,398.6396765,346.7886885367056
11.98476791381836,404.58611750000006,350.7395989261172
11.99839687347412,405.2929585,338.327449295067
11.99839687347412,404.38790250000005,321.67899525278574
12.01436185836792,371.1775905,303.6102713168492
12.01436185836792,381.4099575,309.38363438334903
12.01479697227478,383.0405535,314.20142841062795
12.01479697227478,377.6102185,311.73818164438217
12.028384923934937,347.8443545,290.91092811581035
12.028384923934937,336.9462865,235.5965068268092
12.044051885604858,315.8495105,209.43569321406423
12.044051885604858,282.1455325,167.12406126280757
12.044879913330078,238.5008995,128.19420117372852
12.044879913330078,211.25946850000005,104.8686116681166
12.059013843536375,174.7056865,67.56820492785336
12.059013843536375,142.3779915,18.224230549082307
12.059804916381836,100.69119650000002,-23.7676952303144
12.073556900024414,76.6810385,-92.10194917934422
12.073556900024414,73.79757550000002,-107.1341647101328
12.089071989059448,39.3306575,-147.75555083705183
12.089071989059448,6.59157350000001,-209.9192910922936
12.089767932891846,-3.1807844999999872,-205.0383429933503
12.089767932891846,-19.999115499999988,-229.262066160415
12.103394031524658,-31.33849149999999,-217.7714522867884
12.103394031524658,-39.51765249999998,-215.0690479310391
12.119135856628418,-49.67896149999999,-204.9349660744041
12.119135856628418,-56.092889499999984,-215.0134752438626
12.11978006362915,-64.23091149999999,-236.5868113572868
12.11978006362915,-79.95345149999999,-244.04654791360048
12.133558988571169,-64.64978049999999,-226.58714335866944
12.133558988571169,-67.71275849999999,-244.7181268054539
12.149051904678345,-75.84330149999998,-225.50666741329303
12.149051904678345,-84.9237785,-232.80652691783044
12.14985489845276,-83.56993449999999,-206.5427632187
12.14985489845276,-84.05986149999998,-207.41296972201087
12.16350793838501,-87.19763749999998,-212.69218183777429
12.16350793838501,-104.72654849999998,-209.18644315602623
12.179105043411257,-99.95817649999998,-213.6188423849649
12.179105043411257,-105.88591749999998,-207.5481019963552
12.180058002471924,-94.38572549999998,-200.4872548127513
12.180058002471924,-113.6424705,-201.9105590756037
12.193516969680786,-105.2875335,-188.40124967111475
12.193516969680786,-107.1051245,-183.3225626280916
12.209190845489502,-115.9686875,-178.82495045870013
12.209190845489502,-116.3202385,-174.2519808024391
12.2098548412323,-122.2442395,-173.92225228873906
12.2098548412323,-134.9374605,-170.77059953984684
12.223367929458618,-145.8991075,-195.38213486031728
12.223367929458618,-162.52296249999998,-190.0294336700157
12.23902988433838,-162.1302725,-183.2865291569663
12.23902988433838,-151.5388765,-182.5746514745697
12.2397198677063,-127.15098849999998,-141.92128938852193
12.2397198677063,-120.29201249999998,-138.8724388927935
12.253355979919434,-119.6076105,-152.9055705973899
12.253355979919434,-118.9306885,-185.77127883927068
12.269028902053831,-117.7301805,-192.03310912682048
12.269028902053831,-135.9734125,-195.92724113854763
12.269897937774658,-136.60171549999998,-206.19122010368355
12.269897937774658,-137.1664405,-213.3813409800188
12.283334970474243,-140.61462849999998,-206.45657019450044
12.283334970474243,-152.73190449999998,-180.5237675104564
12.299079895019531,-138.0752365,-145.32423946136777
12.299079895019531,-136.3249635,-131.36699972281664
12.299903869628906,-132.8318965,-122.15043936574328
12.299903869628906,-143.1241015,-98.54916622124918
12.313392877578735,-140.1247015,-85.6272955902914
12.313392877578735,-138.0752365,-52.545848284694216
12.329011917114258,-134.6831475,-13.940679725489415
12.329011917114258,-140.81658349999998,-9.604632911488096
12.3297438621521,-141.8974145,-42.92165689912186
12.3297438621521,-129.46972649999998,-93.78743640219038
12.343469858169556,-133.4078415,-111.60899812048848
12.343469858169556,-142.98198549999998,-128.1480258543689
12.35899305343628,-135.4535665,-120.56282232126443
12.35899305343628,-138.8905345,-118.9755144017174
12.359843969345093,-136.4633395,-119.25468273697273
12.359843969345093,-140.31169649999998,-99.96963156295335
12.373317003250122,-138.9952515,-102.60279691293869
12.373317003250122,-132.2821315,-93.20603215326436
12.405426025390623,-126.1075565,-80.39872380976682
12.405426025390623,-129.0209385,-71.60109569307696
12.406105041503906,-127.8017315,-79.54197443120044
12.406105041503906,-133.2058865,-63.20532507704236
12.406967878341677,-124.7537125,-54.28956382528949
12.406967878341677,-132.27091149999998,-69.4614125904292
12.407752990722656,-134.4138745,-56.66071280897856
12.407752990722656,-125.18754149999998,-67.01773128562976
12.418495893478394,-112.51302049999998,-51.59194678356283
12.418495893478394,-127.4838395,-38.60605748539213
12.433474063873293,-118.80727149999998,-35.31866258439162
12.433474063873293,-117.28139249999998,-33.91597011028924
12.449110984802246,-113.17498249999998,-29.386411608536815
12.449110984802246,-125.57275049999998,-11.936900691858142
12.45000386238098,-124.0169525,-32.177232829055
12.45000386238098,-123.6728815,-35.97754249342053
12.463356971740724,-116.0322665,-20.1571486978242
12.463356971740724,-115.9574685,-9.076452257715983
12.480026960372925,-105.88591749999998,-6.533656299688758
12.480026960372925,-106.46934149999998,-7.337184313804002
12.480034828186035,-109.20694849999998,9.20066135894892
12.480034828186035,-112.02683349999998,-3.8439744443777775
12.493375062942505,-112.0081335,-7.727032665373699
12.493375062942505,-110.69916849999998,-8.652888260414585
12.509122848510742,-98.7875875,-14.326753517771678
12.509122848510742,-104.07206649999998,-6.370762152473162
12.509779930114746,-96.5025085,-3.2582331366916577
12.509779930114746,-100.4742825,-6.14384214924408
12.523413896560667,-97.30284749999998,-9.4854880423745
12.523413896560667,-91.3414465,6.202484241458237
12.539060831069946,-87.02934149999999,-17.702979407081358
12.539060831069946,-89.86418649999999,-24.3039109031982
12.539739847183228,-79.24661049999999,-28.788145610865328
12.539739847183228,-85.36508649999999,-34.3266303473953
12.559596061706545,-81.42697149999998,-44.9448358451325
12.559596061706545,-76.04899549999999,-64.13341537252714
12.569130897521973,-73.44228549999998,-70.05115827690645
12.569130897521973,-87.05178149999999,-69.6814033855956
12.569779872894289,-73.80131549999999,-67.667029349929
12.569779872894289,-75.4842705,-90.9470807016208
12.58358597755432,-64.05513649999999,-79.2042620504342
12.58358597755432,-65.63337449999999,-85.63227582364999
12.599041938781738,-69.31717549999999,-62.842239123563495
12.599041938781738,-68.40464049999999,-59.91623279648666
12.59990096092224,-71.07866849999999,-57.02943717532892
12.59990096092224,-66.9647785,-37.97318887294895
12.61353087425232,-65.92508649999999,-68.21400067328773
12.61353087425232,-62.43949949999998,-24.00228068165979
12.629061937332152,-57.98527849999999,-26.537898173389912
12.629061937332152,-63.344555499999984,-8.299479393312645
12.629806995391846,-60.87622149999999,-17.590629265887586
12.629806995391846,-55.18409349999999,-23.76723223034567
12.6434428691864,-59.73929149999999,-19.227171468240023
12.6434428691864,-58.636021499999984,4.005779607821786
12.659157991409302,-56.70623349999998,-10.568615860212702
12.659157991409302,-56.26492449999999,-24.637608197401462
12.659822940826416,-60.34515549999999,-10.26623647541193
12.659822940826416,-56.43322049999999,-25.83589296129416
12.673372983932495,-50.02303149999999,-10.700831639516965
12.673372983932495,-49.66400149999998,-6.512563497778039
12.68909788131714,-46.27939249999999,-12.931238892492871
12.68909788131714,-60.66304749999999,-10.251127697933782
12.689952850341797,-49.98937249999999,-24.86484102803202
12.689952850341797,-47.95486749999999,-11.986666303692346
12.703366994857788,-46.24573249999999,-24.122659901506758
12.703366994857788,-59.27180449999999,-6.0408349541959865
12.71911597251892,-45.21726049999998,-3.5013847195290566
12.71911597251892,-45.95028049999999,-15.826288620692829
12.719890832901,-40.67328149999999,-11.989923975908605
12.719890832901,-42.12810349999998,2.6410659169998496
12.733528852462769,-42.386156499999984,-12.538228433256648
12.733528852462769,-21.143524499999984,13.926512905961332
12.74904489517212,-4.904878499999995,29.87022740402567
12.74904489517212,-11.161731499999972,22.398977811949077
12.749758005142212,11.7002765,34.81502857288085
12.749758005142212,31.263693500000016,49.06394825683797
12.763470888137816,60.03848350000001,65.49226469514723
12.763470888137816,71.34420150000003,75.97083748495054
12.779111862182615,130.0568905,128.88576457508734
12.779111862182615,95.9116045,86.65364042427728
12.779824018478394,94.1875105,69.61923571309053
12.779824018478394,81.38583250000002,72.80043256451812
12.793517827987673,125.3259175,104.47716050423142
12.793517827987673,144.3246095,105.10747112721504
12.809093952178957,124.5592375,84.48606439447835
12.809093952178957,119.3121585,88.13616438346638
12.80988383293152,183.8777915,127.8407611335968
12.80988383293152,205.8272635,157.7512785607093
12.823521852493286,274.83963750000004,221.65976044132051
12.823521852493286,299.44817950000004,259.5748056775936
12.839133024215698,388.2109655,340.1622906711201
12.839133024215698,483.8626465,419.1864568031897
12.839798927307127,517.9443544999999,438.8680980429773
12.839798927307127,591.0743585,516.1761874965401
12.869788885116575,662.2147355,559.1507684709668
12.869788885116575,676.3926965,554.4244484171176
12.870676040649414,719.3080485,602.453369287571
12.870676040649414,708.7877095000001,588.6949490924344
12.871206998825071,714.0347895,534.3124705839541
12.871206998825071,767.2124265,569.0426751959471
12.88332486152649,777.7626845,541.6476501043894
12.88332486152649,752.3538045,498.89835665927177
12.899106979370115,775.8478554999999,466.7351175945171
12.899106979370115,785.8707875,434.0096603139559
12.899812936782835,775.1634535000001,442.2199305949352
12.899812936782835,776.6070555000001,415.0212752596177
12.913364887237549,740.6217375000001,313.1174753473446
12.913364887237549,751.4637075,284.8114846691875
12.929121017456056,734.3274865000001,317.0923314391372
12.929121017456056,732.8090864999999,294.12532027062133
12.929772853851318,710.9306724999999,221.2532570378808
12.929772853851318,678.7263935000001,166.16262558183166
12.959813833236694,675.7643925,147.55006337051577
12.959813833236694,637.6996915,108.3730199862414
12.960577964782717,618.1923735,91.62795832513302
12.960577964782717,576.3167135000001,76.40495064106437
12.961312055587769,558.6456854999999,29.926002420449663
12.961312055587769,538.2146124999999,46.54713046025097
12.973376035690308,526.0449785000001,51.92720771573522
12.973376035690308,492.7523885,34.17577814922441
12.989197969436646,474.4605375,-21.69918778704869
12.989197969436646,441.01087250000006,43.21116948299124
12.989866971969604,408.7617155,7.898557095587364
12.989866971969604,377.2081795,-26.898751161188045
13.003473997116089,311.7337505,-45.09070419177368
13.003473997116089,247.7029235,-30.612983335238027
13.0191650390625,198.0146125,-84.22610726289452
13.0191650390625,151.8567675,-109.2417419627502
13.020027875900269,121.45138150000002,-113.42684359852812
13.020027875900269,44.37952250000001,-144.8930616665842
13.033427953720093,29.65553650000001,-155.44080654124653
13.033427953720093,9.291781500000011,-159.2176747836315
13.049187898635864,-23.08453249999998,-161.31505971977538
13.049187898635864,-72.91121949999999,-147.27847375359488
13.04983901977539,-91.5284415,-166.44290450640725
13.04983901977539,-116.6194305,-145.50910494023884
13.064204931259155,-129.4061485,-118.17601663855577
13.064204931259155,-142.71645249999997,-73.50057672662129
13.064803838729858,-146.2992765,-104.09981390857212
13.07836890220642,-162.4481645,-170.30968250519274
13.07836890220642,-164.1385995,-157.71277886951992
13.094111919403076,-183.8067335,-193.66178578337997
13.094111919403076,-186.0918115,-241.437873517414
13.0948588848114,-199.3759365,-276.50921116501746
13.0948588848114,-191.5034475,-287.679741265821
13.108404874801636,-196.0923045,-294.1585061125483
13.108404874801636,-200.4343285,-334.62771582663095
13.124143838882446,-207.9403075,-326.77336327165875
13.124143838882446,-197.5433855,-296.67401322934575
13.124737024307253,-218.0754365,-335.95749402205365
13.124737024307253,-222.7353515,-327.351720613629
13.154860973358154,-222.6942125,-333.95256760371933
13.154860973358154,-221.4862255,-312.66793214828965
13.155616044998167,-240.0361285,-291.443712608912
13.155616044998167,-244.8157215,-207.14036924832476
13.156405925750732,-257.6360985,-207.4037764567381
13.156405925750732,-256.4131505,-107.78892257965228
13.168472051620483,-267.0681255,-27.302892584053097
13.168472051620483,-261.9556825,22.13784504079092
13.184114933013916,-239.7182375,155.28292015547265
13.184114933013916,-216.5832165,43.11214685718477
13.184869050979614,-228.7416315,-151.0753995971412
13.184869050979614,-226.6024085,-269.0030294989972
13.198430061340332,-231.5390765,-326.8029084962204
13.198430061340332,-236.6627395,-370.1098198047571
13.214062929153442,-244.6698645,-310.82527059311246
13.214062929153442,-239.9314115,-340.9593611853219
13.214802980422974,-234.3215615,-351.2308109879501
13.214802980422974,-227.9599915,-274.4947052137737
13.228500843048096,-240.7766295,-273.8750667163605
13.228500843048096,-238.6935045,-288.23580400140315
13.244122982025146,-230.8060555,-297.13169565521923
13.244122982025146,-230.9294725,-235.90168889818844
13.244772911071776,-236.2476105,-157.19999842709566
13.244772911071776,-228.9959445,-157.43354280238947
13.258522987365724,-217.2788375,-135.15298844361217
13.258522987365724,-210.5507575,-104.7490439240773
13.274065017700195,-222.6680335,-58.705129398571216
13.274065017700195,-221.8714345,-27.777757423669243
13.274906873703005,-208.7967445,-3.588801290440585
13.274906873703005,-212.1589145,-17.189103276278814
13.288463830947876,-218.4269865,-54.06388627556086
13.288463830947876,-209.4886265,-85.99151071145656
13.304244041442873,-203.0559985,-92.84875924314522
13.304244041442873,-206.6799615,-21.72922779827209
13.304983854293823,-208.8752825,-18.62278295205158
13.304983854293823,-202.9998995,-20.5452721036784
13.318511009216309,-198.2277875,-72.92213248967374
13.318511009216309,-185.9197765,-4.983329288028756
13.33426594734192,-188.2833935,10.23668842147316
13.33426594734192,-187.5017545,-12.48237181999309
13.334938049316406,-177.3516655,-30.703040873847613
13.334938049316406,-176.48774849999998,-1.0295219578914327
13.348417043685911,-186.8809305,6.807669189849463
13.348417043685911,-187.8346055,62.89488810185327
13.36421799659729,-184.4761755,70.41769480537033
13.36421799659729,-183.7468945,54.72557245054736
13.3648419380188,-189.4315425,76.38585677737098
13.3648419380188,-184.4125965,78.28545730071605
13.37857699394226,-176.67474349999998,115.58191833025234
13.37857699394226,-172.97972249999998,147.2828650401372
13.39415693283081,-189.9439085,151.6900567154719
13.39415693283081,-167.0931205,219.0801822158696
13.394845962524414,-156.5391225,231.8692135567256
13.394845962524414,-165.4700035,241.90453152583885
13.4248468875885,-166.80140749999998,276.2401041500251
13.4248468875885,-166.4535975,312.6032139503865
13.425623893737791,-163.7571295,293.1683099711181
13.425623893737791,-154.1717655,284.1250304448389
13.426642894744871,-158.36045349999998,272.54534561825494
13.426642894744871,-173.3013545,262.1032497147031
13.438374042510986,-149.9269795,316.3075776389611
13.438374042510986,-145.65227349999998,254.6999782020942
13.454084873199465,-153.20687149999998,267.5994943485928
13.454084873199465,-146.1422005,196.7694275408377
13.45489501953125,-143.8795615,154.85421620134454
13.45489501953125,-137.57782949999998,173.31477551072604
13.46838402748108,-149.8858405,110.42455851545624
13.46838402748108,-132.84311649999998,67.57878795967602
13.484004974365234,-132.89173549999998,23.8394174564271
13.484004974365234,-124.06183149999998,7.882087909517224
13.484730005264282,-128.2729585,-39.26259495353493
13.484730005264282,-121.6645555,-75.88795944840423
13.498438835144045,-115.13095049999998,-108.14909911966414
13.498438835144045,-114.5699655,-119.52459028724856
13.514282941818236,-118.35474349999998,-132.40980928591972
13.514282941818236,-107.64367049999998,-185.5054766471311
13.514813899993896,-110.7477875,-167.38108166798838
13.514813899993896,-101.4541365,-190.10780045544615
13.52849793434143,-114.7644405,-201.60792891376704
13.52849793434143,-105.85599849999998,-173.4452883282185
13.544108867645264,-103.4362835,-239.0145680939428
13.544108867645264,-101.5887725,-248.8547585025218
13.544793844223022,-106.2449475,-236.04560616833533
13.544793844223022,-106.6451175,-234.648703587408
13.558369874954224,-102.3442325,-211.21353015097557
13.558369874954224,-92.0894265,-206.5336138643807
13.574108839035034,-104.7676875,-215.32056012184017
13.574108839035034,-87.49682949999999,-190.44829338833804
13.574800968170166,-86.70771049999999,-196.94655998992775
13.574800968170166,-85.84379349999999,-188.62233728092707
13.588412046432495,-86.07566749999998,-175.052738350796
13.588412046432495,-89.40043849999998,-166.16250490325564
13.604676961898804,-83.5325355,-151.51726938324788
13.604676961898804,-89.57995349999999,-135.17687648747562
13.604797840118408,-88.6861175,-135.31705530757938
13.604797840118408,-90.6046865,-137.24068624909526
13.618355989456177,-92.50455549999998,-99.14218806663276
13.618355989456177,-84.08978049999999,-118.27391607861614
13.634078025817873,-93.1178995,-88.70307669838438
13.634078025817873,-80.5106965,-85.77715843152768
13.63481593132019,-77.50755649999999,-93.3679813162219
13.63481593132019,-70.38304749999999,-41.98141411128103
13.648313045501707,-74.81108849999998,-26.777426592936717
13.648313045501707,-67.55568249999999,-21.961560079840147
13.664145946502686,-60.56580949999999,-25.55472621275912
13.664145946502686,-53.11592949999999,-14.184805352336744
13.66482400894165,-67.59682149999999,-25.642764423918344
13.66482400894165,-35.721654499999985,30.520690862548804
13.678344011306764,-35.59075749999998,1.424269650960369
13.678344011306764,-7.840700499999997,39.2015554264697
13.694116830825806,-5.4209855000000005,66.94843858740543
13.694116830825806,10.727903500000023,91.26220891724958
13.69481897354126,50.670034500000014,105.96128587232847
13.69481897354126,45.5089725,76.62372051497218
13.70857000350952,58.13487450000002,98.94549575431726
13.70857000350952,64.44782550000002,75.81206709476538
13.724130868911743,70.66353950000001,65.67823798745553
13.724130868911743,58.048857500000025,59.66440308167762
13.724772930145264,79.50466350000002,78.72565413768332
13.724772930145264,63.314636500000006,63.37283211107362
13.738538026809692,89.1012465,73.69939710770484
13.738538026809692,54.47725250000002,28.361065992803034
13.754188060760498,71.51623650000002,43.06468614662733
13.754188060760498,108.6571835,80.19054627083844
13.75495195388794,49.98563250000001,24.212096035815502
13.75495195388794,72.2155985,68.3222866388498
13.768573999404907,86.69649050000001,79.36335517905852
13.768573999404907,105.1641165,109.09786409376366
13.784196853637695,112.7860325,100.01818644951322
13.784196853637695,166.6144125,117.36877383822916
13.784839868545532,143.24377850000002,113.84072901132028
13.784839868545532,171.8914115,131.79609238898917
13.798529863357544,211.9046015,187.0961224249025
13.798529863357544,230.39466650000003,204.12001044335528
13.8141028881073,257.8118735,235.1128695924325
13.8141028881073,292.60042250000004,261.9693556120813
13.81482982635498,302.8215695,277.5618292764332
13.81482982635498,308.9400455,288.44606129415047
13.828505992889404,333.9001375,296.6135178317815
13.828505992889404,360.2103345,297.4231192654922
13.84410285949707,322.5308425,302.1223380517347
13.84410285949707,327.35157350000003,320.55056441635776
13.844790935516356,345.8042395,310.18644287233485
13.844790935516356,361.3210845,324.9340522002155
13.85871696472168,335.7700875,273.9704213943762
13.85871696472168,337.08653250000003,270.1108411576653
13.874106884002686,325.3170675,273.8218726260325
13.874106884002686,288.60620950000003,243.1053016133608
13.874778985977173,263.53018050000003,200.66348187715363
13.874778985977173,254.8199535,171.37539058798524
13.888378858566284,235.7240245,143.60868378221204
13.888378858566284,221.69939950000003,182.4162253975308
13.904067993164062,203.1756745,138.41123991809275
13.904067993164062,177.5311805,119.7405992978539
13.90475583076477,156.69993850000003,136.41131907550465
13.90475583076477,164.4751905,100.65099253086282
13.918731927871704,141.2990305,80.94733963935877
13.918731927871704,116.0360055,76.53810666612725
13.934239864349363,80.75378950000001,56.66990382678242
13.934239864349363,83.21464350000002,74.07706539389687
13.93488097190857,77.20836450000002,31.829253450839403
13.93488097190857,68.34106150000002,46.44796088795354
13.948425054550173,31.42824950000002,-19.54887369481684
13.948425054550173,45.23595950000001,-6.654695628658274
13.980543851852415,30.5680725,-23.163757951688908
13.980543851852415,33.69462850000002,-18.5724182510843
13.98581600189209,16.69678350000001,-33.01166029088687
13.98581600189209,-8.783155499999992,-70.75499389462419
13.986033916473389,-12.070527499999995,-82.75432280810641
13.986033916473389,6.565394500000025,-67.61220370984293
13.986139059066772,-15.84034649999998,-62.30418713053986
13.986139059066772,-24.299999499999984,-53.19938121894793
13.993414878845217,-20.16741049999999,-71.82166485148025
13.993414878845217,-12.683870499999983,-94.77092636166265
14.00841999053955,-35.91612949999998,-84.16273481776469
14.00841999053955,-46.50752549999999,-96.17428119095506
14.024119853973389,-17.216629499999982,-70.9900042483356
14.024119853973389,-22.056060499999987,-83.68275028840691
14.024744033813477,-38.635036499999984,-57.53919665068186
14.024744033813477,-30.31001949999998,-40.659123266241146
14.038437843322754,-21.704509499999983,-34.650130648460134
14.038437843322754,-33.25332049999999,-38.53066938135707
14.07044792175293,-42.57689149999999,-79.19077800653059
14.07044792175293,-41.94484749999998,-104.8737873858762
14.071147918701172,-43.175275499999984,-73.88900724347687
14.071147918701172,-34.345371499999985,-49.491659329836935
14.071997880935667,-57.68982649999998,-106.49970505856984
14.071997880935667,-41.555898499999984,-101.85838712498588
14.072686910629272,-29.853751499999987,-94.01185160542846
14.083461046218872,-30.807425499999997,-107.5507521206266
14.083461046218872,-39.00528649999998,-87.7300386883179
14.09921383857727,-56.97924549999999,-128.17004052654804
14.09921383857727,-53.80781049999999,-98.94155647927934
14.099814891815186,-59.30546349999999,-98.2446252456512
14.099814891815186,-57.95161949999999,-103.38059724840392
14.113435983657835,-62.54047749999998,-114.80725362914254
14.113435983657835,-72.24925749999998,-96.16012589365484
14.129135847091677,-88.1326125,-83.78790025835197
14.129135847091677,-102.49008849999998,-49.67899699197882
14.129842042922974,-122.5733515,-48.14258342245228
14.129842042922974,-98.5744135,28.251540700813425
14.143401861190796,-98.4023775,69.38810896589912
14.143401861190796,-90.2419155,175.6509178474259
14.159106016159058,-82.64991949999998,180.39111226719737
14.159106016159058,-82.38438649999998,68.17939719287531
14.159803867340088,-58.22837249999999,28.92321662385369
14.159803867340088,-96.88397849999998,-66.0371571991437
14.173373937606812,-108.66840349999998,-73.76978466544813
14.173373937606812,-111.7276415,-14.113647945844946
14.189043045043944,-115.95372849999998,-35.58618353360245
14.189043045043944,-112.5055405,-10.14563316144202
14.190108060836792,-118.27994549999998,29.92190920182999
14.190108060836792,-128.02238549999998,57.30682372423109
14.203398942947388,-121.1297495,69.08275439664602
14.203398942947388,-139.15232749999998,69.12811119101258
14.21909785270691,-124.1852475,103.66581684457915
14.21909785270691,-122.86880349999998,137.7025080651049
14.219769954681396,-119.78338549999998,192.40795229057144
14.219769954681396,-136.70269349999998,187.41858981194687
14.233369827270508,-138.28467049999998,207.5448828605201
14.233369827270508,-132.56262349999997,178.39420318503903
14.249027013778688,-134.57469049999995,180.1226160691134
14.249027013778688,-136.5306575,227.35708141162988
14.249762058258057,-136.45585949999997,151.4484478588235
14.249762058258057,-136.66903449999998,180.7825864172733
14.263489961624146,-143.03060349999998,176.05231263486928
14.263489961624146,-146.1945595,148.20874456697342
14.279181003570557,-139.4029005,135.3003361869237
14.279181003570557,-138.2210925,142.20334026571254
14.279813051223757,-137.46189249999998,164.02921395138748
14.279813051223757,-149.12664049999998,134.06425791603888
14.295994997024536,-145.73829149999997,137.22206907190125
14.295994997024536,-141.37008849999998,129.88385688858395
14.309142827987673,-129.65298149999998,127.09247095895196
14.309142827987673,-140.9063405,109.889917070511
14.309875011444092,-139.7806305,130.74474655191173
14.309875011444092,-136.6802535,94.2912901366076
14.323369026184082,-133.03011149999998,80.22561416930478
14.323369026184082,-141.8300955,80.8188666662914
14.338814973831177,-138.0864565,71.4735051773921
14.338814973831177,-129.5632245,91.9041779267337
14.354090929031372,-119.4767135,113.1571253558664
14.354090929031372,-137.55913049999998,102.73373515596067
14.354843854904177,-136.4147205,125.77680845689616
14.354843854904177,-128.6020695,103.28180362097552
14.369098901748655,-124.3797225,101.1999482263885
14.369098901748655,-126.27959149999998,101.68940956755074
14.370532989501951,-124.7724125,91.65188468457193
14.370532989501951,-124.65647549999998,137.9911926059446
14.38345193862915,-120.77071949999998,122.9886877927338
14.38345193862915,-130.82731049999998,108.13424907452348
14.399168014526367,-129.2079335,95.13770978452364
14.399168014526367,-134.1408615,68.3181729587078
14.399823904037476,-115.3441245,105.03709762348664
14.399823904037476,-128.29539849999998,67.65756885871394
14.413395881652832,-128.4861325,89.15272071294396
14.413395881652832,-125.8719425,60.8872853012152
14.429206848144531,-121.30926449999998,65.5860351332716
14.429206848144531,-127.6483955,57.01479005222672
14.429865837097168,-93.6414855,84.5595310695312
14.429865837097168,-113.4928745,22.362800707296078
14.44334602355957,-94.75597549999998,38.80878809611684
14.44334602355957,-104.6629705,21.19200599678014
14.459161043167114,-93.0356215,-6.442153767187989
14.459161043167114,-90.1932975,-21.73963100909944
14.459795951843262,-77.96382449999999,-39.832458882807
14.459795951843262,-85.26410949999999,-47.88592922085395
14.473408937454224,-91.1020925,-72.957929115026
14.473408937454224,-82.50406249999999,-70.53411397055987
14.489197969436646,-74.71385149999999,-69.86822539529963
14.489197969436646,-85.60070049999999,-96.658530478867
14.489963054656982,-82.49284349999999,-95.3177951892884
14.489963054656982,-81.87575949999999,-104.17973739648662
14.504179000854492,-75.4506115,-96.2437095842146
14.504179000854492,-82.69105749999999,-85.46990411054168
14.519136905670166,-84.14213949999998,-72.93302568002343
14.519136905670166,-74.79238949999998,-75.72387319505442
14.519947052001951,-69.86694149999998,-72.74636053371398
14.519947052001951,-80.6789915,-55.066517910233095
14.533546924591064,-82.05153549999999,-73.07775200897896
14.533546924591064,-76.55388249999999,-43.460244301964
14.549129009246826,-70.75703749999998,-43.23398417908786
14.549129009246826,-72.63820649999998,-37.8014956536219
14.54982590675354,-78.06854149999998,-40.20225925680471
14.54982590675354,-73.53952249999999,0.5382550663950525
14.563437938690186,-67.98577149999998,-10.2478953572745
14.563437938690186,-73.98457049999999,-15.462047224862836
14.579121828079224,-69.76222349999999,-5.310870044156928
14.579121828079224,-59.17082749999999,10.398004305092158
14.579802989959717,-63.789603499999984,13.548602695698406
14.579802989959717,-63.92797949999999,14.356988333568893
14.593515872955322,-64.29075049999999,1.0297494021561278
14.593515872955322,-70.25963049999999,11.109629498887855
14.62558388710022,-58.00397849999999,9.669983620415053
14.62558388710022,-68.19520549999999,14.66448592667922
14.626297950744627,-68.24008449999998,9.295485039284811
14.626297950744627,-53.482439499999984,5.653685947505089
14.62704300880432,-49.637822499999984,-1.3103984161280948
14.62704300880432,-45.83060449999999,24.430113757957
14.627718925476074,-33.84048449999999,39.86505792623262
14.627718925476074,-31.383370499999984,33.040215705284226
14.638427019119264,7.305894500000022,76.52208769810458
14.638427019119264,-1.9765374999999776,59.988605906436206
14.65351700782776,27.4789145,74.75886564448001
14.65351700782776,77.52999650000001,126.95312298550203
14.669155836105348,82.4517045,113.8044693527988
14.669155836105348,86.44591750000001,121.78228733652185
14.669818878173828,85.29776850000002,105.66284719055476
14.669818878173828,89.63231250000001,112.3496454084609
14.683573961257936,97.33276650000002,112.4832308860762
14.683573961257936,83.70457050000002,93.73380033208709
14.699202060699465,91.1432315,88.55794808080054
14.699202060699465,90.6233855,85.92213045648117
14.700114011764526,97.95358950000002,86.34213876281957
14.700114011764526,78.5921275,84.6869490016748
14.713542938232422,90.13345850000002,100.05650924036824
14.713542938232422,94.5540205,104.92269267412142
14.729198932647703,111.1255175,122.06471858988066
14.729198932647703,84.86393950000001,106.84219917563578
14.729733943939207,75.78346250000001,96.63671393605574
14.729733943939207,94.69987650000002,110.8443043162486
14.74339199066162,101.4728355,111.7056653331588
14.74339199066162,90.30175450000002,100.49569347768411
14.759079933166504,86.30754150000001,95.89292033818762
14.759079933166504,85.14817250000002,95.86451891143852
14.759811878204346,82.45918450000002,78.66347862854005
14.759811878204346,78.70058450000002,86.28697277377489
14.773404836654665,94.0640935,100.18302997418628
14.773404836654665,73.65171950000001,75.93995654995472
14.789192914962769,70.74207750000002,68.19726757929594
14.789192914962769,77.12608650000001,88.58059214068165
14.789829969406128,80.3386605,80.3211998957682
14.789829969406128,78.93619850000002,81.84233362352953
14.80586004257202,89.74450950000002,97.9856988641898
14.80586004257202,82.8743135,108.98077571502556
14.819175004959106,75.8582605,93.1654859192722
14.819175004959106,81.23997650000001,92.80886307177774
14.819891929626465,67.4958445,61.68090344874542
14.819891929626465,85.28280850000002,82.99619828598254
14.833375930786133,82.1824315,84.99592226533257
14.833375930786133,77.37666050000001,76.5715362575795
14.84911584854126,73.22537150000002,65.11695461797692
14.84911584854126,67.37242750000001,67.58736874283414
14.849874019622805,67.40234650000002,66.18571033544706
14.849874019622805,75.94801850000002,59.84177117339585
14.86356496810913,61.66160050000002,48.0128067753971
14.86356496810913,53.75545150000002,53.28397144745189
14.879312992095947,60.3788145,40.2739868252129
14.879312992095947,57.68982650000001,38.261946893947794
14.88001585006714,62.04681050000002,59.99066759169492
14.88001585006714,61.904694500000005,61.39349277032144
14.893435001373293,46.77679850000001,36.41431046904681
14.893435001373293,56.9381065,63.99968716329487
14.909181833267212,72.9186995,77.92152553774959
14.909181833267212,62.18892650000001,53.26182240953078
14.909886837005615,56.98298550000001,52.88370503823991
14.909886837005615,54.57822950000002,54.83501904606877
14.923542022705078,73.19919150000001,62.38861909811365
14.923542022705078,59.761731500000025,61.89955837636212
14.93921399116516,47.65941550000002,63.12159999872432
14.93921399116516,60.606948500000016,79.22985391260893
14.940194845199583,67.62674050000001,50.56755752567185
14.940194845199583,46.170934500000016,46.82743150676831
14.95369791984558,39.87668350000001,22.494278579479133
14.95369791984558,44.0803305,7.399305931570609
14.969267845153809,47.86884950000001,23.029500923133085
14.969267845153809,44.469280500000025,30.56603837091481
14.969990015029907,49.66400150000001,36.588542179759486
14.969990015029907,35.57579850000002,19.06590646601426
14.983365058898926,44.8357905,40.447711163245
14.983365058898926,41.97102750000002,16.483623811432338
14.999184846878052,23.798853500000007,-3.15217490689993
14.999184846878052,17.197929500000015,-5.08255134460136
14.999942064285278,35.62815650000002,12.196815380506044
14.999942064285278,28.6195845,13.15140089652625
15.01376485824585,35.75905350000002,33.84852439310942
15.01376485824585,28.5036475,34.39703848499969
15.029147863388062,33.43283550000001,42.40537113041511
15.029147863388062,17.41110450000002,33.10909743823026
15.029886960983276,3.678191500000026,0.5160635508443958
15.029886960983276,-25.347171499999988,-43.76637033239079
15.043454885482788,-21.75686849999998,-39.19613488477773
15.043454885482788,12.653951500000003,9.48579298675947
15.059165954589844,10.645625500000024,19.931948867451293
15.059165954589844,-4.886179499999997,-12.341873744464245
15.05978798866272,-11.053274499999986,7.034654245205324
15.05978798866272,-22.504847499999983,-11.168117562410888
15.090510845184326,-35.766533499999994,-31.613298215296872
15.090510845184326,-26.278407499999982,-21.73821000464035
15.091222047805786,-34.62773349999999,-30.539973859490416
15.091925859451294,-49.47139649999998,-50.35488452781189
15.091925859451294,-58.97822249999999,-39.3186290880573
15.09270191192627,-57.66177749999999,-25.87120436007648
15.09270191192627,-48.09885349999999,-15.424395700450605
15.10344099998474,-68.12975749999998,-35.93066933666551
15.10344099998474,-63.07341249999999,-47.66249257386821
15.118502855300903,-68.64212349999998,-60.9738923296925
15.118502855300903,-53.60772549999999,-61.66351140502291
15.134140968322754,-58.05820649999998,-87.86857292298369
15.134140968322754,-70.73646749999999,-81.88310373787317
15.13492202758789,-72.01177349999999,-116.26534931053894
15.13492202758789,-63.39504449999998,-91.2805442995085
15.148445844650269,-80.8304575,-107.08209210417654
15.148445844650269,-74.24823349999998,-107.39621048176802
15.18052101135254,-63.664316499999984,-99.7079405353318
15.18052101135254,-54.23228949999999,-82.41886210067321
15.18117904663086,-81.4512815,-97.01473854569912
15.18117904663086,-79.54767249999999,-76.14328203250102
15.182090044021606,-78.20878749999999,-63.12698250299152
15.182090044021606,-74.59604449999999,-48.62255597893872
15.18277096748352,-102.0431705,-52.25839295303025
15.18277096748352,-106.6095885,-58.72629026915108
15.193428993225098,-111.53129649999998,-49.13721291151165
15.193428993225098,-109.47435149999998,-26.155869678417915
15.20850396156311,-98.2733515,-34.5897069890014
15.20850396156311,-74.29311249999999,18.063274943710468
15.224218845367432,-59.43823049999999,-2.331501344814193
15.224218845367432,-61.98510149999999,-43.50965817471517
15.224946975708008,-63.78773349999999,-59.79642881763375
15.224946975708008,-72.44560249999999,-95.607280785495
15.238555908203123,-77.8759365,-105.33464650293855
15.238555908203123,-71.97063449999999,-92.3872069330076
15.254140853881836,-82.19926149999998,-119.08697650083651
15.254140853881836,-88.4000155,-107.4412733968462
15.254843950271606,-82.07958449999998,-101.1806165225949
15.254843950271606,-72.86073049999999,-90.10235983736248
15.268594026565552,-75.74793349999999,-69.3044436849833
15.268594026565552,-71.56298549999998,-44.74656129045653
15.28413701057434,-73.20106149999998,-30.95480728135105
15.28413701057434,-65.87833749999999,33.7159188858611
15.284816026687622,-81.92998849999998,43.06439861104735
15.284816026687622,-70.36995749999998,70.77989748208044
15.29856300354004,-67.42665649999999,65.13979505235885
15.29856300354004,-72.56901849999998,2.9492617120987177
15.316099882125854,-72.98040749999998,-25.78044311062834
15.316099882125854,-64.53197349999999,-40.390550079793854
15.316114902496338,-70.94964249999998,-57.3870146006046
15.316114902496338,-63.28284749999999,-42.58286743945334
15.32847285270691,-69.16196949999998,-56.71616080379513
15.32847285270691,-58.70894949999999,-34.686074767207
15.344161033630373,-62.33291249999999,-45.20025173644071
15.344161033630373,-61.11370549999998,-42.61361279086641
15.34478497505188,-67.81560549999999,-46.51558094112914
15.34478497505188,-59.05676049999998,-44.08385400567023
15.358464002609251,-66.40940349999998,-52.42734194596058
15.358464002609251,-61.29696049999998,-58.91188384765813
15.374183893203735,-72.04543249999999,-52.02855069974264
15.374183893203735,-63.51472049999998,-42.13665393823722
15.37476897239685,-55.92272449999999,-52.97653568598068
15.37476897239685,-58.12552549999998,-61.08028373358327
15.388432025909424,-58.78000749999998,-59.9305957035464
15.388432025909424,-54.54270049999998,-61.37952294706277
15.40410089492798,-56.02370149999999,-46.568416001292114
15.40410089492798,-60.16751049999999,-53.61325750560727
15.404831886291504,-60.3171065,-52.73408313331388
15.404831886291504,-55.56369349999999,-52.44665077843726
15.418431997299194,-54.26968849999999,-58.35727796006645
15.418431997299194,-49.04504849999999,-50.68062224106822
15.434123992919922,-53.98171549999999,-43.24199534504412
15.434123992919922,-52.55681449999999,-53.04619340042955
15.434823989868164,-52.19404349999999,-46.37483451027598
15.434823989868164,-61.14736449999998,-65.6368282264925
15.44841194152832,-60.85565249999999,-69.79537913492459
15.44841194152832,-48.72341649999999,-51.65025526746184
15.464196920394896,-47.01802249999999,-49.52492031701743
15.464196920394896,-46.90956549999999,-65.14369671196872
15.464808940887451,-54.53896149999999,-56.023022279263145
15.464808940887451,-49.64717149999999,-73.5857905678155
15.478487968444824,-47.40323149999999,-61.27292917348237
15.478487968444824,-43.33422049999999,-63.5209391598109
15.494127035140991,-52.63909149999999,-58.325989432124615
15.494127035140991,-41.6849245,-62.58835687802447
15.49481987953186,-49.56863449999999,-91.52007991516308
15.49481987953186,-35.596367499999985,-83.04594146279831
15.50844693183899,-40.47693749999999,-92.44885369679068
15.50844693183899,-46.66273149999999,-100.16546848263916
15.524062871932983,-35.44677149999998,-104.42038498945293
15.524062871932983,-39.98327049999999,-117.4789930100318
15.524771928787231,-43.10982649999998,-123.88255671983428
15.524771928787231,-21.605402499999983,-116.72107927323458
15.53841996192932,-24.473905499999987,-104.41859600598322
15.53841996192932,-22.375821499999983,-97.64380910340142
15.55418300628662,-35.05408249999999,-99.3809320815342
15.55418300628662,-21.25759149999999,-77.37936591406189
15.554795026779177,-34.18268549999999,-73.76049082585595
15.554795026779177,-35.05408249999999,-69.41197330871171
15.56844997406006,-13.815190499999986,-30.44271547466329
15.56844997406006,-30.857914499999996,-33.643005760811455
15.584178924560549,-28.12030749999998,-21.448754271410365
15.584178924560549,-38.64438649999998,-30.05496331606149
15.584872961044312,-17.450373499999984,-0.1217160068289686
15.584872961044312,-7.786471499999976,18.24996228476217
15.598526000976562,33.703978500000005,71.82850494550922
15.598526000976562,17.93282050000002,43.20295218206879
15.614158868789673,29.97155850000001,50.25655964031763
15.614158868789673,75.09719150000001,100.01172910226693
15.614847898483276,104.13377450000002,108.18752798164375
15.614847898483276,119.42996550000004,128.97163227865713
15.62989592552185,99.6870335,103.39626652258426
15.62989592552185,94.0323045,109.12278137510695
15.644209861755373,121.5654485,127.74201382219503
15.644209861755373,115.6339665,116.56507700050427
15.644893884658812,102.40220050000002,103.03985469640725
15.644893884658812,177.2338585,169.13021827370534
15.658427000045776,110.6000615,106.8621096287512
15.658427000045776,122.1077335,108.54293885292664
15.674218893051147,125.38388550000002,120.30906203528416
15.674218893051147,161.2196075,148.6333083618899
15.674815893173218,184.52666350000004,158.92282853194126
15.674815893173218,192.6833855,172.58455573820746
15.68848705291748,264.63158050000004,258.9039051558839
15.68848705291748,297.3444855,295.92838157136543
15.704126834869385,353.0166365,336.1686201991528
15.704126834869385,375.91230450000006,376.5824086823678
15.704803943634031,422.6797535,416.5181850174584
15.704803943634031,500.3612155,491.6584578112947
15.718557834625244,531.0283945000001,513.212944737614
15.718557834625244,514.7560894999999,490.84907073655495
15.73428988456726,531.4136045,509.2474088043509
15.73428988456726,581.8536355000001,541.6835299628948
15.734838008880615,589.0716425,529.8783787088129
15.734838008880615,606.5294945,565.994876386465
15.74842405319214,597.3293415,545.6128320261456
15.74842405319214,609.6261325,547.7969918113174
15.764201879501345,617.7978135000001,565.9046052760958
15.764201879501345,571.6324884999999,495.85326833830686
15.764889001846312,594.5281565,511.3905274625495
15.764889001846312,595.3584135000001,467.765417245264
15.778650999069214,570.8620695,450.71222823271455
15.778650999069214,558.3147045000001,408.03687357924247
15.79417896270752,565.6000295000001,397.1625484828681
15.79417896270752,555.7229545,373.1477780493009
15.794842958450316,531.8623924999999,348.15730061940167
15.794842958450316,520.8596064999999,381.10865036449775
15.808430910110474,498.6221615,301.84016621737766
15.808430910110474,505.3465015,344.10227098408046
15.824163913726808,480.1657555,300.2044377024753
15.824163913726808,436.3565675,237.12972895127257
15.824987888336182,426.0942815,233.9763210756598
15.824987888336182,396.8146045,143.48491523448686
15.8385808467865,352.4332125,197.0266756657389
15.8385808467865,314.5629855,165.07753127114387
15.854176044464111,274.16832550000004,129.96459174476664
15.854176044464111,238.3400845,130.40556013704946
15.854843854904177,186.5948285,101.31425917265742
15.854843854904177,123.39425950000005,10.676074041969372
15.86857295036316,73.66854950000001,-0.0892348816448418
15.86857295036316,45.46222350000002,-13.253897526619596
15.884233951568604,20.139361500000007,-52.93114725030159
15.884233951568604,-2.0831244999999967,-78.76691530782188
15.884984970092772,-38.09462049999999,-77.43873999311234
15.884984970092772,-51.65923849999999,-105.92566966556208
15.898510932922363,-71.80233949999999,-129.641538583762
15.898510932922363,-89.71646049999998,-94.691908771837
15.914155960083008,-99.9450865,-75.6006333540449
15.914155960083008,-96.1565675,-55.93103880362185
15.914830923080444,-111.2134045,-133.29572749607905
15.914830923080444,-130.62722549999998,-97.93976420741322
15.940707921981812,-149.86153149999998,-141.551944683877
15.940707921981812,-135.98276249999998,-65.35787702644602
15.94416093826294,-150.0373065,-78.11599435393335
15.94416093826294,-168.20948049999998,-45.33718031424127
15.944879055023192,-160.28837249999998,-37.32458858863205
15.944879055023192,-159.0093265,-34.16016011763334
15.95850396156311,-161.2196075,-39.66968639589956
15.95850396156311,-167.37548249999998,-45.82305179254891
15.974155902862549,-178.72233949999998,-41.97473362610745
15.974155902862549,-172.36076949999998,13.005288633100603
15.974868059158323,-179.26088449999995,17.78143591499594
15.974868059158323,-180.2856175,23.657921570408263
15.988510847091677,-189.2800765,25.84986883707083
15.988510847091677,-191.6436935,61.459584465732064
16.020562887191772,-197.4629775,65.30454206575021
16.020562887191772,-197.7659095,63.67548869258772
16.021353006362915,-205.4888035,57.37608786656224
16.021353006362915,-191.0228705,52.07905365542604
16.02192187309265,-198.9776375,31.39969857277524
16.02192187309265,-188.9921045,40.35859177036002
16.02269983291626,-198.3455945,59.34359878684046
16.02269983291626,-192.6572065,84.27996976000583
16.033529043197632,-190.8695345,63.35023764122789
16.033529043197632,-191.2622235,70.79889531289473
16.04847002029419,-201.3487335,89.20922418630704
16.04847002029419,-190.3347285,51.74262038034709
16.064116954803467,-185.2260255,35.448593686385095
16.064116954803467,-187.4400455,42.01036338784616
16.064777851104736,-191.3931205,28.698503982395493
16.064777851104736,-177.69760649999998,38.54133936297163
16.07913589477539,-182.3089035,30.09337547572261
16.07913589477539,-180.2182995,13.391623364996631
16.079854011535645,-181.7217385,12.039664188949445
16.093493938446045,-161.88156949999998,24.12761389149071
16.093493938446045,-165.0118655,33.00913457884451
16.10918092727661,-174.0063255,21.021196225853544
16.10918092727661,-166.77335849999997,4.795174563005247
16.10988187789917,-151.09195849999998,-19.70706612434506
16.10988187789917,-156.23058049999997,18.087809248791046
16.123404026031494,-172.17751449999997,22.708123513576567
16.123404026031494,-163.35883049999998,45.75730293151025
16.13931393623352,-147.3744975,47.358625140374215
16.13931393623352,-149.22574849999998,44.78182678508893
16.13987398147583,-149.7605535,47.46256063573208
16.13987398147583,-163.0184995,28.514733580269592
16.153553009033203,-143.3466255,44.19626087866712
16.153553009033203,-143.43638349999998,43.85075385506673
16.16927695274353,-154.68226249999998,52.93289326933407
16.16927695274353,-140.76609449999998,91.10493777000326
16.16985583305359,-129.5576145,100.8983358747526
16.16985583305359,-138.71662949999998,104.5076386249552
16.183459043502808,-140.85211249999998,115.36957009037792
16.183459043502808,-134.3820855,106.75931457499436
16.199206829071045,-130.6347055,124.0561500730504
16.199206829071045,-127.27627549999998,77.56956679637763
16.200095891952515,-127.00700249999998,51.03931035065291
16.200095891952515,-134.4007845,19.42074988558062
16.213489055633545,-119.9124125,22.77680563134348
16.213489055633545,-125.2978685,-22.12903491224162
16.229110956192017,-137.5684795,-33.60783266124318
16.229110956192017,-131.1358525,-33.145516429364804
16.229933977127075,-122.03293549999998,-75.74789530583512
16.229933977127075,-123.7084105,-52.80395749077833
16.24347996711731,-123.91784549999998,-68.19969260488718
16.24347996711731,-125.0323355,-73.75454431605266
16.259171962738037,-109.8221625,-75.80051500906328
16.259171962738037,-111.0750285,-90.32086872870372
16.25986385345459,-130.37665249999998,-141.48550384300017
16.25986385345459,-135.8705655,-75.86818320811396
16.289816856384277,-119.26166949999998,-57.427377084445
16.289816856384277,-133.9819155,-56.32919913438529
16.290519952774048,-140.4893415,-0.0168002212776343
16.290519952774048,-142.7370215,7.993201546007924
16.291292905807495,-112.97489749999998,89.75951865273062
16.291292905807495,-97.8881415,185.9084287667355
16.303766012191772,-88.82636349999999,125.91559851250192
16.303766012191772,-95.17297449999998,7.837615391338687
16.319169998168945,-74.3005925,-95.41739106681742
16.319169998168945,-85.38939549999998,-143.99628895308732
16.31988286972046,-94.4623935,-115.41120220252888
16.31988286972046,-94.3464565,-89.39819322485064
16.333483934402466,-84.65263549999999,-62.23708329677896
16.333483934402466,-88.32521749999998,-48.5061386517615
16.34919786453247,-91.9379605,-20.94614234373164
16.34919786453247,-102.5069175,-45.25060609142034
16.349840879440308,-87.7791915,-8.480943541476805
16.349840879440308,-80.71078049999998,6.881049065426325
16.363457918167114,-92.7532585,-14.093900418275084
16.363457918167114,-97.06910349999998,10.198456914555308
16.37921404838562,-85.2098805,-33.64422059889148
16.37921404838562,-92.03519849999998,-57.25967848735
16.379859924316406,-89.99695249999999,5.912043695930692
16.379859924316406,-88.25789949999998,27.59070717042277
16.393484830856323,-80.4078495,119.59768680179278
16.393484830856323,-77.20649449999999,156.80434312710057
16.409206867218018,-79.11384349999999,170.6287720080805
16.409206867218018,-80.3928895,174.06254882343424
16.409833908081055,-73.62367049999999,157.0754164126284
16.409833908081055,-73.37309749999999,182.8775864985787
16.423457860946655,-78.37334349999999,147.91451106833313
16.423457860946655,-79.65612949999999,129.50421660491884
16.439260959625244,-79.46165449999998,147.71368601765704
16.439260959625244,-72.72609449999999,163.33479321375927
16.43994688987732,-77.4234085,159.01789205039722
16.43994688987732,-66.45428249999999,165.16157520628298
16.453439950942993,-59.16147749999999,199.979837187276
16.453439950942993,-66.89185049999999,169.32504943949715
16.4692280292511,-46.23638349999999,166.37869909126232
16.4692280292511,-39.52700249999998,180.1904984717341
16.469892024993896,-44.43375149999999,176.60498497230708
16.469892024993896,5.7257865000000265,225.832112241559
16.483453035354614,31.426379500000024,248.49693400034425
16.483453035354614,43.45389750000001,232.10463351911568
16.499248027801514,65.57166550000002,253.0068381858564
16.499248027801514,94.0360445,249.2968589998516
16.49994206428528,83.83733750000002,256.36651517905875
16.49994206428528,66.4056635,217.79970803109575
16.513488054275513,80.81549850000002,215.95993227704784
16.513488054275513,129.0489875,258.2555067906176
16.5292809009552,151.16675650000002,277.62213504384977
16.5292809009552,191.3557215,314.7491379063636
16.529927968978882,264.8522355,354.7079506640695
16.529927968978882,348.1585065,445.1045457649429
16.543544054031372,481.4148815,563.8511290655874
16.543544054031372,544.5144735000001,591.9832961546953
16.57558298110962,613.9382364999999,634.1451270995759
16.57558298110962,690.9577365,678.4616293860818
16.576295852661133,746.1250004999999,716.9490485015648
16.576295852661133,804.5833765,727.3456529440631
16.57688283920288,811.6779675,705.1362419071637
16.57688283920288,862.5331265,735.1602122182144
16.577669858932495,879.1345425,738.04123550146
16.577669858932495,888.7460855000002,715.4373102883824
16.58851385116577,894.4008145,701.2704386019109
16.58851385116577,907.0042775000002,711.2711867224081
16.60499596595764,903.2942965,708.1572591131783
16.60499596595764,898.8737345000002,730.180716709896
16.619202852249146,900.0592825000001,722.2919586975335
16.619202852249146,857.6338575,727.4114389835737
16.619892835617065,833.0290565,750.828225707422
16.619892835617065,831.1516265,771.0946234285369
16.633573055267334,804.2767054999999,733.5491402590968
16.633573055267334,783.8605915,762.6435076687808
16.649382829666138,746.6448465000001,775.6778228067918
16.649382829666138,711.5795445000001,770.0648372404677
16.64987587928772,665.1150275,695.3713209239129
16.64987587928772,600.7476095,666.5948737416008
16.663564920425415,518.3800535,646.3572789537353
16.663564920425415,464.87704450000007,642.6704623657608
16.679163932800293,366.3082415,506.8361524874961
16.679163932800293,311.2868325,460.1222440662362
16.679862022399902,250.1432085,380.6811426059724
16.679862022399902,148.50394750000004,319.8338485266964
16.693454027175903,70.57939150000001,223.662574375014
16.693454027175903,2.793705500000016,104.57845254386748
16.709167003631592,-49.23952249999999,86.13696665656815
16.709167003631592,-81.63079649999999,73.66342893541831
16.709874868392944,-126.4647175,-26.38911774841658
16.709874868392944,-135.53023449999998,-32.197423736533466
16.723469018936157,-147.3221395,8.938872728357353
16.723469018936157,-181.4524665,-23.32986785738953
16.738953828811646,-188.9472255,-33.0489881254872
16.738953828811646,-201.8984995,-55.21198055308042
16.754215955734253,-207.7925815,-60.61139143295168
16.754215955734253,-223.8928505,-71.06210404701056
16.7548668384552,-219.9135975,-116.74891424211248
16.7548668384552,-215.6276715,-108.1216843081854
16.769170999526978,-227.8571445,-93.11685524770128
16.769170999526978,-242.3679565,-95.53490302756212
16.76992702484131,-250.3750825,-124.88412299158286
16.76992702484131,-254.7096265,-175.4822954608713
16.78351593017578,-260.7458245,-144.948122878196
16.78351593017578,-265.0579295,-169.26650948469165
16.79914903640747,-261.7256785,-203.81322669839287
16.79914903640747,-258.8609155,-224.99265563376937
16.799869060516357,-255.9998915,-181.2036416530413
16.799869060516357,-270.14419350000003,-179.8654302682582
16.813541889190674,-270.4807845,-187.57583393114103
16.813541889190674,-259.2685645,-167.70309502426915
16.829180002212524,-252.4694265,-164.80193450210157
16.829180002212524,-267.0924355,-171.33031162192634
16.82981586456299,-278.0166825,-232.54299653428984
16.82981586456299,-259.4929585,-227.27450942437864
16.84629797935486,-240.9467945,-195.01844108817863
16.84629797935486,-266.3407155,-175.4399340006187
16.859194040298462,-257.8474025,-201.0852756337972
16.859194040298462,-257.6117885,-252.65893436598824
16.859810829162598,-257.8810615,-229.85621142161972
16.859810829162598,-263.9359595,-274.6791477272739
16.87344789505005,-253.1089495,-234.48610371891044
16.87344789505005,-280.1222465,-262.26747056864554
16.88912296295166,-234.4431085,-168.04886993150564
16.88912296295166,-264.1416545,-172.3295540559852
16.889935970306396,-233.2613005,-187.1305604938089
16.889935970306396,-225.0073405,-195.84469648558596
16.90347385406494,-225.3962905,-171.23181824111248
16.90347385406494,-238.1082105,-173.23475733055898
16.919164896011353,-242.6746285,-208.87591399482864
16.919164896011353,-246.8520965,-165.4981589384716
16.91980004310608,-244.7427935,-125.42906184217324
16.91980004310608,-247.4018615,-100.27705691981802
16.933470964431763,-214.0569135,-96.6750574215111
16.933470964431763,-225.3214925,-163.14534211757538
16.954787969589233,-221.9518425,-60.204208225150126
16.954787969589233,-205.3354675,-26.227729555992795
16.95479702949524,-210.7246635,-23.26533117352463
16.95479702949524,-215.0966065,-77.76880796072302
16.96352505683899,-187.6457405,-41.84089864058052
16.96352505683899,-191.5614155,-48.04741629110961
16.9791738986969,-191.4866175,-62.08384632801125
16.9791738986969,-110.1849325,-14.709204663771205
16.97984290122986,-77.11673749999999,10.67955046268601
16.97984290122986,-102.03943049999998,-47.59075125015632
16.993969917297363,-89.32751049999999,-88.62173233301193
16.993969917297363,-22.49175849999999,-3.5192878334132978
17.009270906448364,-86.31315149999999,-53.94688449938207
17.009270906448364,-186.0712425,-205.35143194733644
17.00998091697693,-142.6884035,-165.54968097200793
17.00998091697693,3.601523500000013,-43.25546206715005
17.023563861846924,3.7324205000000177,-8.410477359227137
17.023563861846924,-130.6496655,-133.6990950941726
17.0391628742218,-84.24124649999999,-108.83534318454058
17.0391628742218,-22.858268499999998,-99.75772723860044
17.03985095024109,-52.32494049999998,-96.53012062569462
17.03985095024109,-60.11889149999999,-44.241689858274846
17.053690910339355,-159.46559449999998,-177.93165130301975
17.053690910339355,-239.7911655,-312.8248989093084
17.069259881973267,-462.0403305,-502.7189441160592
17.069259881973267,-484.6218465,-516.1423529935923
17.069918870925903,-548.0916884999999,-610.2591441396936
17.069918870925903,-471.4723575,-527.1950594885622
17.084298849105835,-544.2321115,-570.4298427966837
17.084298849105835,-570.8115805,-598.9849014146582
17.08489990234375,-148.3973605,-190.9240265836169
17.09854483604431,36.2901195,4.379663514320701
17.09854483604431,33.3692575,3.090750050080185
17.11416006088257,-42.44973449999999,-68.29041811958297
17.11416006088257,-158.9401385,-209.769055105268
17.114900827407837,-32.46794149999998,-139.38489839028568
17.114900827407837,41.9149285,-10.562204279517005
17.128497838974,-56.10410949999999,-56.8371188948169
17.128497838974,60.79394350000001,49.68213972914163
17.14422082901001,34.068618500000014,-40.72620389468773
17.14422082901001,13.409411500000004,-15.348325183470031
17.144858837127686,-5.604240499999975,36.79561870562385
17.144858837127686,-101.5775525,-59.34094004793975
17.158867835998535,140.7679645,175.56759683377678
17.158867835998535,144.34330850000003,167.94502507014815
17.174141883850098,55.64036150000001,137.62427515793456
17.174141883850098,86.32624050000001,153.61635560161298
17.174872875213623,47.9399075,37.88395065075529
17.174872875213623,42.93218150000001,37.45352167897696
17.188499927520752,179.8910575,140.8715117523821
17.188499927520752,199.77236550000003,144.99385074473054
17.204360961914062,129.84371650000003,21.57865698344642
17.204360961914062,161.1429395,60.022780535207474
17.204859018325806,181.9966215,109.28535990075233
17.204859018325806,124.97062650000004,45.44462357967767
17.218456029891968,158.48761050000002,36.08510599036438
17.218456029891968,141.92359350000004,12.127282459128253
17.234169006347656,210.17676750000004,124.949508609301
17.234169006347656,170.76196250000004,110.256978943091
17.234916925430298,151.1200075,101.05236914672552
17.234916925430298,145.69341250000002,134.1798970597178
17.24841594696045,119.00174650000002,156.37380643064
17.24841594696045,108.4552285,178.44298936238576
17.264297008514404,97.85261250000002,169.69840710551097
17.264297008514404,103.1969295,212.69632421100712
17.26486086845398,120.8642165,359.3816749129204
17.26486086845398,112.7336745,282.6049659754884
17.278481006622314,119.7534665,110.39429498754852
17.278481006622314,115.6994145,-26.7210462733197
17.310627937316895,115.84153150000004,-87.79885294315233
17.310627937316895,78.7604235,-105.07235847028304
17.311275959014893,74.97938450000001,-94.4197965191952
17.311275959014893,26.66735650000001,-104.62997422321718
17.311981916427612,96.3529125,12.996372381088207
17.311981916427612,64.5076645,-3.06456753860374
17.312746047973633,56.739892500000025,30.592287655287976
17.312746047973633,89.19848350000001,111.64917453141376
17.32353687286377,72.9037395,151.79059885367414
17.32353687286377,54.42863350000002,171.25059058325647
17.338484048843384,37.464447500000006,135.22288285656288
17.338484048843384,38.6761755,132.19586112055248
17.35418701171875,46.62720250000001,203.80240194793947
17.35418701171875,32.344524500000006,189.1310943473084
17.354964017868042,24.41219650000002,160.65086597236476
17.354964017868042,44.435621500000025,169.43864520120735
17.368489027023315,44.626356500000014,164.6874162295842
17.368489027023315,32.27346650000001,176.92025792745662
17.38415503501892,25.03302050000002,163.50560974493453
17.38415503501892,53.20568650000001,169.47083155353795
17.38500189781189,23.37250450000002,195.37383524662036
17.38500189781189,19.85325850000001,200.2009974093891
17.39859104156494,12.074266500000022,170.57094501364045
17.39859104156494,30.38855750000002,199.2464077597257
17.414135932922363,8.181031500000017,179.66228989429555
17.414135932922363,-5.6453784999999925,194.63015069137575
17.414921045303345,43.17901450000002,225.00213817474895
17.414921045303345,7.76590250000001,175.58061925876754
17.42859196662903,1.1238395000000023,140.6367087768075
17.42859196662903,39.304478500000016,161.98284076517376
17.44428586959839,6.94312450000001,128.32769266912246
17.44428586959839,22.2430545,162.3131542984094
17.445138931274414,6.509295500000008,162.54296535673018
17.445138931274414,-2.9526514999999733,135.55235314121543
17.4585440158844,3.715590500000019,136.05770378586786
17.4585440158844,16.5509275,140.6065301697023
17.474175930023193,10.193097500000022,158.944588342744
17.474175930023193,-26.024093499999992,109.92032176448583
17.474923849105835,-13.760961499999992,126.868460504596
17.474923849105835,-32.81575249999999,106.9747422681202
17.488494873046875,27.44151550000001,174.37860444412306
17.488494873046875,8.394205500000027,131.97683175234846
17.50415802001953,-13.259815499999988,78.33277902069105
17.50415802001953,-3.300461499999983,105.30376279135824
17.504976987838745,-26.098891499999997,77.2574350828799
17.504976987838745,-47.2742055,18.295161729280764
17.518581867218018,-12.94566349999998,61.55587343878732
17.518581867218018,-10.226756499999992,55.85670680268211
17.534337997436523,-12.485656499999976,60.45702978640591
17.534337997436523,-31.26743349999998,43.58591256693765
17.53506898880005,-27.89404349999998,44.60336488024787
17.53506898880005,-39.76448649999999,11.760228431763878
17.54846501350403,-34.31545249999999,48.488680331764215
17.54846501350403,3.1134665000000155,44.48968728030363
17.56420588493347,-33.96390149999999,-14.197255525248288
17.56420588493347,-16.40507149999999,-10.583671226557168
17.564949989318848,-45.2097805,-33.9640507038845
17.564949989318848,-7.541508499999992,-22.202572523916874
17.57845401763916,-2.5786614999999813,-72.97094927052841
17.57845401763916,-8.061354499999993,-111.16698123009274
17.59415602684021,-6.842146499999984,-86.82232347454746
17.59415602684021,-18.951943499999985,-134.01611908011864
17.594794034957886,-23.293966499999986,-136.7433825857159
17.594794034957886,10.56334750000002,-114.64990964718744
17.608469009399414,-0.263662499999981,-98.7052036224953
17.608469009399414,-23.559499499999987,-121.51156489861567
17.62420892715454,-16.109619499999994,-99.32947990987569
17.62420892715454,-17.037114499999987,-92.74284529308834
17.62502884864807,-29.752774499999987,-76.40163905709676
17.62502884864807,-4.759022499999986,-51.7070462693537
17.63847589492798,-22.897537499999984,-43.49044981797144
17.63847589492798,-22.75916149999999,-46.00440594749695
17.65422797203064,-60.77524449999999,-56.61237805991087
17.65422797203064,-8.368026499999985,7.075902487146211
17.654924869537354,-7.055321499999991,-13.277984582545928
17.654924869537354,-8.9477105,-9.279043033799043
17.668560028076172,-20.604978499999987,1.4598160746684563
17.668560028076172,-31.910696499999982,-12.629954512557656
17.68418598175049,-2.264509499999974,2.431077394245218
17.68418598175049,-2.986310499999973,3.1605729641780247
17.684924840927124,-17.73273549999999,4.49137129159088
17.684924840927124,-24.303739499999992,-11.56267961306168
17.698596954345703,6.90946550000001,-6.777600739584404
17.698596954345703,43.7287805,33.92731834476062
17.71423888206482,-8.356806499999976,8.439604968049757
17.71423888206482,10.993435500000004,27.43588768923319
17.714956045150757,28.47372850000002,42.07823190847483
17.714956045150757,48.844963500000006,55.04400659073296
17.728463888168335,31.37963050000002,44.999494867227256
17.728463888168335,16.01986150000002,26.76222753762989
17.744292974472046,33.5225935,35.43792050969854
17.744292974472046,78.19569850000002,76.84565768349168
17.744956016540527,69.5453095,86.9337546451842
17.744956016540527,68.59163550000002,98.08132926046622
17.75844693183899,23.46226250000001,49.27229925367169
17.75844693183899,52.98503250000002,58.65763885170336
17.774252891540527,147.20433250000002,156.62789430150116
17.774252891540527,65.4127205,76.18216661973558
17.77500891685486,79.57198150000002,71.26166867726553
17.77500891685486,83.6783915,78.26654384689333
17.788487911224365,88.38318550000002,91.38346464737285
17.788487911224365,52.5399845,42.18633822270144
17.80418300628662,78.29667550000002,65.9535888000815
17.80418300628662,47.696814500000016,7.780878309975677
17.804872035980225,36.7463865,29.76650426611096
17.804872035980225,48.856183500000014,39.98823942844242
17.818480968475342,51.18614050000002,30.5166724739618
17.818480968475342,44.592697500000014,2.6048611911772426
17.83422589302063,6.823447500000015,0.7103704602870113
17.83422589302063,18.933243500000003,35.64741360864342
17.83487105369568,13.282254500000022,1.704208146611082
17.83487105369568,-21.151004499999985,-40.57918484872546
17.848471879959106,-102.14227749999998,-110.33909258110567
17.848471879959106,24.1728435,39.1165520561686
17.864157915115356,-5.312527499999987,-2.0830784372942377
17.864157915115356,13.446810500000026,1.4982173925356523
17.86494493484497,-43.17153549999999,-35.818883696873186
17.86494493484497,-29.950988499999998,-41.343378718678935
17.878634929656982,-9.190804499999985,10.586011803523398
17.878634929656982,26.820692500000007,19.653996828133867
17.894300937652588,-36.79500549999999,-27.27275276793104
17.894300937652588,-61.48582549999999,-56.830437286250415
17.894906997680664,-33.61983049999999,-47.48767506478548
17.894906997680664,-5.862293499999993,-10.142476849289814
17.90867304801941,-18.15160449999999,-17.889621018094378
17.90867304801941,-37.61030349999999,-25.930420322571635
17.924213886260986,-53.81529049999999,-68.6064908239317
17.924213886260986,-28.051119499999984,-56.14072433790901
17.92500901222229,-78.77912249999999,-64.45637482402921
17.92500901222229,-83.34554049999998,-58.54626569337093
17.93862295150757,-17.923470499999993,-18.13660693191883
17.93862295150757,-29.54707949999998,-22.68665915850445
17.95436692237854,-54.30895749999999,-27.52913672265359
17.95436692237854,-51.75834549999999,-40.88986865757981
17.95497703552246,-41.90744849999999,-33.76202738800107
17.95497703552246,-54.46603349999998,-39.29982168520625
17.968565940856934,-62.29738349999998,-36.64260684325743
17.968565940856934,-82.59382049999999,-38.36697448927252
17.984333038330078,-77.60105449999999,-64.69932604196734
17.984333038330078,-16.274174499999987,-14.440918409812978
17.985039949417114,-33.69462849999999,-36.97114505531168
17.985039949417114,-71.81168949999999,-65.6362151916028
17.999387979507446,-66.89372049999999,-67.52715893702154
17.999387979507446,-28.66820349999999,-31.599063712180627
18.01423692703247,-53.62455549999999,-51.05732967097581
18.01423692703247,-63.67740649999999,-38.45124810520959
18.01494598388672,-46.99745249999998,-29.3489333635238
18.01494598388672,-49.97815349999999,-55.136176938716574
18.02863383293152,-47.2742055,-31.74240887392505
18.02863383293152,-69.10774149999999,-33.39527986349957
18.04438090324402,-35.47108149999998,-22.63551701247215
18.04438090324402,-41.84013049999999,-9.049134294743084
18.045042991638184,-41.44370149999999,-22.18659168898572
18.045042991638184,-66.22427849999998,-25.01621044806768
18.05862689018249,-60.98841849999998,-48.489838772552034
18.05862689018249,-32.11639049999998,-27.239377606969708
18.074184894561768,-56.72119249999999,-23.13205979096325
18.074184894561768,-33.04014649999999,4.502036730580883
18.07488584518433,-55.40848749999999,-52.1933066947505
18.07488584518433,-43.11543649999999,-31.018056423820155
18.08920288085937,-65.56605649999999,-43.46433164224995
18.08920288085937,-54.32017649999999,-26.335540566282663
18.090070009231567,-57.96096949999999,-39.14679111766014
18.103607892990112,-17.36061549999998,-0.5238773834073349
18.103607892990112,-51.43110449999999,-18.521412376741083
18.119149923324585,-23.135021499999997,42.32217939902034
18.119149923324585,-28.838368499999987,-3.783379902522452
18.12002396583557,-33.07567549999999,20.84237771520324
18.12002396583557,-66.26728749999998,-12.97607483376992
18.133548974990845,-49.5985535,4.4204902972912095
18.133548974990845,-34.42203949999998,22.14668434049723
18.149231910705566,-29.866841499999992,18.350158700818618
18.149231910705566,-64.56937249999999,20.00969495216725
18.150012016296387,-62.05989949999999,4.167886827552664
18.150012016296387,-23.576329499999986,12.601831918455062
18.16350483894348,-65.3697115,-49.01190934485771
18.16350483894348,-52.366079499999984,-49.01645632028163
18.183856964111328,-19.21560549999998,-7.762073425247005
18.183856964111328,-35.51408949999998,-42.99709803903605
18.183868885040283,-13.168187499999988,-30.37410999864423
18.183868885040283,-35.36823349999999,-58.45411166179628
18.193673849105835,-39.17919149999999,-33.29307893223228
18.193673849105835,-34.717491499999994,-40.17702424031026
18.20931506156921,-39.38488649999999,-64.24652245018892
18.20931506156921,-31.93500549999999,-40.52992586772203
18.21004295349121,-77.7899195,-53.14325422782538
18.21004295349121,-42.45160449999999,-43.36823209266888
18.22371196746826,7.453620499999999,-6.455243347025192
18.22371196746826,-32.140700499999994,-15.927203417398797
18.239234924316406,-21.560523499999988,1.3885041312205182
18.239234924316406,-37.930065499999984,-27.583896152143154
18.239959001541138,-60.84069249999999,-31.559157042838866
18.239959001541138,-45.94093149999999,-3.316881449596778
18.25367498397827,-56.70810349999999,2.9921663921165944
18.25367498397827,-62.59096549999998,-13.370625365612298
18.269175052642822,-32.189318499999985,53.08464247710188
18.269175052642822,-8.44843449999999,117.34486824062064
18.270002841949463,-9.233813499999997,59.36369730902274
18.270002841949463,-13.942347499999984,-37.07737533998217
18.28351092338562,9.177714500000008,-28.70215421201404
18.28351092338562,-12.509965499999993,-94.3392006831264
18.29923105239868,-29.33203549999999,-72.53576341819846
18.29923105239868,-39.22033049999999,-76.61155218028648
18.2999119758606,-15.44952649999999,-84.2384158750072
18.2999119758606,-17.184840499999993,-61.67990128910344
18.31372594833374,-45.75019649999999,-69.94900656596032
18.31372594833374,-49.60603349999998,-71.99271513611058
18.32935786247253,-0.781639499999983,-34.99642839686711
18.32935786247253,-21.115475499999988,-27.093791294362298
18.33009386062622,-30.569942499999986,24.68585805938318
18.33009386062622,-28.183886499999986,33.05100936635614
18.343551874160767,-25.674413499999982,20.30852978212181
18.343551874160767,-29.204878499999992,21.19201539908596
18.35944986343384,-50.00246249999999,36.62716989895516
18.35944986343384,-14.533251499999992,27.1764336973645
18.36001300811768,-13.426240499999992,7.597167156154271
18.36001300811768,-30.73449749999999,47.189738891300905
18.373467922210693,-38.99219649999999,34.53513937316018
18.373467922210693,-21.05563649999999,20.09864130959417
18.38931488990784,-20.719045499999996,-1.551505621977732
18.38931488990784,-25.876367499999983,19.949897015039383
18.39001202583313,-29.39187349999999,27.54031915521847
18.39001202583313,-36.1872715,20.33620496634485
18.403584957122803,-6.06611749999999,43.552251292245
18.403584957122803,-16.291004499999985,22.17419408687887
18.41936087608337,-30.22213149999999,25.03509004961644
18.41936087608337,-41.52410949999998,15.810897593663547
18.420110940933228,-31.164586499999984,-1.7883834935614755
18.420110940933228,-33.38234749999998,-8.053192148957272
18.43366003036499,-31.10848749999998,7.110588108118876
18.43366003036499,-21.84475549999999,41.78698515115917
18.449398040771484,0.6619625000000156,37.22500856071935
18.449398040771484,-48.89545249999999,-27.47195278420312
18.45001006126404,-47.43689149999999,14.178394122832216
18.45001006126404,-33.58056149999999,21.68301659388148
18.463582038879395,-4.136329499999988,39.24324576669898
18.463582038879395,-30.771896499999983,40.95726849198317
18.479200839996334,-23.583809499999987,35.13974798273769
18.479200839996334,-7.629395499999987,30.749911031921364
18.4799120426178,26.856221500000004,71.5376548789547
18.4799120426178,24.90025350000002,74.47755436040289
18.49376583099365,5.59489050000002,70.86228978863548
18.49376583099365,32.769003500000025,98.3947241546088
18.50938105583191,78.88196950000003,120.50926782259688
18.50938105583191,55.5636935,116.35935709527892
18.509971857070923,84.7685725,137.82706225307265
18.509971857070923,48.6635785,93.72671915713744
18.52360892295837,85.01166550000002,136.09157783819492
18.52360892295837,105.6334745,112.38797834335996
18.53947591781616,86.87039650000003,138.09238038460524
18.53947591781616,76.0396455,100.7034595369398
18.540119886398315,79.65986950000001,66.28371472942109
18.540119886398315,105.1435475,96.07577536761968
18.55358386039734,67.93902250000002,46.08528766732531
18.55358386039734,56.25183550000003,-4.223281671549799
18.569243907928467,62.9986145,2.892938082982603
18.569243907928467,13.003632500000007,-48.80257694624098
18.56995797157288,47.89315850000003,-24.390683013480725
18.56995797157288,-34.990504499999986,-95.67583193565332
18.583545923233032,107.69041950000002,23.02819057857573
18.583545923233032,73.30951850000002,14.36315603239776
18.59934687614441,68.3354515,8.64881151729793
18.59934687614441,138.0808465,46.69235802296368
18.600152015686035,68.90391650000001,3.8327581212102046
18.600152015686035,40.484417500000006,-33.84149629743145
18.613674879074097,16.062870500000002,-29.9188620756572
18.613674879074097,6.073597500000005,-38.13471747437356
18.629199981689453,-94.1108425,-131.04290922306708
18.629199981689453,122.21993050000005,93.11541157192715
18.630082845687863,89.82491750000003,72.312799985998
18.630082845687863,5.3891955,-32.46291615999494
18.643576860427856,71.7948595,63.807877671313726
18.643576860427856,-26.90484049999999,-27.98841356888027
18.65931296348572,47.64632550000002,48.39917273243819
18.65931296348572,32.75404350000002,53.443181913558846
18.66000986099243,14.3686955,5.673218717009036
18.66000986099243,-6.039938499999977,3.6061874478871294
18.673635005950928,87.57723750000002,105.46844291882692
18.673635005950928,2.8647635000000093,10.574465891717969
18.689053058624268,-29.623747499999997,-15.91074871247705
18.689053058624268,95.9433935,102.16499636846936
18.710579872131348,23.748364500000008,31.553642307765475
18.710579872131348,47.657545500000026,55.58260833986736
18.710710048675537,-49.60603349999998,-55.24427215847295
18.710710048675537,122.45928450000002,122.27539042086669
18.71926999092102,92.2221925,110.14679150012547
18.71926999092102,12.293051500000018,-0.6105463971209115
18.719995975494385,46.27378250000001,50.49390727240584
18.719995975494385,59.576606500000025,60.231823125724006
18.733597993850708,-75.0971915,-71.6597994021939
18.733597993850708,45.8100345,62.21285680542417
18.749265909194943,184.2237315,187.08979411948
18.749265909194943,113.0496955,117.21379883885294
18.75005793571472,57.11949250000001,84.44138834079996
18.75005793571472,-18.220792499999988,3.8888529348086784
18.76367688179016,147.5839325,139.86881747337046
18.76367688179016,117.27952249999998,107.41305429001636
18.77927589416504,58.13300450000003,76.6128733755987
18.77927589416504,144.7715275,163.24441854301932
18.779940843582157,136.51756850000004,132.6525844534317
18.779940843582157,113.4573445,119.11999677792608
18.79388999938965,65.48938850000002,74.7010146674575
18.79388999938965,90.9655865,95.11729523225488
18.80920886993408,149.0013545,147.34951472588756
18.80920886993408,91.27225850000002,91.66645237553008
18.81010890007019,117.9040855,134.1369825951784
18.81010890007019,101.8860945,117.54550886683194
18.823582887649536,85.58387050000002,93.05576114873804
18.823582887649536,138.0434475,136.53937300690836
18.839273929595947,90.36720250000002,91.76549379679666
18.839273929595947,86.0625775,98.46601812289592
18.840054035186768,133.63036550000004,117.64532549521282
18.840054035186768,100.8351825,87.27464542580847
18.853562831878666,84.9555675,93.99984272832958
18.853562831878666,74.28563250000002,92.206757949873
18.869313955307007,135.8069875,119.44743654053887
18.869313955307007,96.0780295,89.94661252567306
18.869850873947144,87.67073450000001,129.9533833836068
18.869850873947144,105.6783535,126.37122638654972
18.883643865585327,96.7886105,83.224131656162
18.883643865585327,78.1713885,89.67414248994767
18.899307012557983,63.91115050000002,88.7335501259656
18.899307012557983,75.09345150000001,77.87199891867273
18.900038957595825,103.6363675,74.25165621729725
18.900038957595825,87.83529050000001,97.45726469019012
18.913708925247192,94.27539850000002,118.26582810754404
18.913708925247192,93.1646475,102.9429594593199
18.929297924041748,74.3791305,49.28365062433686
18.929297924041748,54.8568525,49.77940158808555
18.9301118850708,85.29963850000001,102.48128962191372
18.9301118850708,58.312520500000005,43.42134135864215
18.94353699684143,72.21746850000002,65.56032071728346
18.94353699684143,111.2096655,104.17535259236794
18.97559094429016,69.2928665,96.04304231738652
18.97559094429016,89.4845865,112.5630855383752
18.976263999938965,98.5613235,87.8386685619724
18.976263999938965,79.50279350000002,81.83427997040735
18.977000951766968,67.8343055,90.06257994821254
18.977000951766968,61.98884150000001,85.78029686695628
18.97807192802429,84.54417850000002,64.68396014082859
18.97807192802429,93.0225315,90.4133940703426
18.988534927368164,69.5770985,96.13075945256666
18.988534927368164,79.5177525,85.94633373074016
19.003612995147705,80.51256650000002,74.34318665642
19.003612995147705,91.27225850000002,80.22799173388432
19.019343852996823,77.00454050000002,112.7449410646656
19.019343852996823,56.6856635,63.26511794119776
19.02005386352539,64.16546350000002,52.59685026832002
19.02005386352539,88.31773750000002,86.44649725402304
19.03360199928284,58.46211650000001,78.37833835509555
19.03360199928284,89.94459350000002,97.31691265780634
19.065736055374146,58.13674450000002,39.03331616709105
19.065736055374146,74.18091550000003,81.96467091138571
19.066438913345337,64.06822650000001,88.01796909317218
19.066438913345337,67.3967375,61.41865461692316
19.06708693504333,68.39155050000002,53.469679059783495
19.06708693504333,65.10791850000001,55.54658083141946
19.0678288936615,47.6051865,67.53667730214795
19.0678288936615,44.2317965,40.7810717442742
19.07857584953308,55.88906450000002,46.78521567538991
19.07857584953308,38.72666450000003,37.698727326997904
19.094362020492557,50.93369750000002,63.54202418321512
19.094362020492557,51.2478495,53.79855973346184
19.09511494636536,33.9732515,21.625908594828697
19.108623027801517,31.57971550000002,33.3782151469215
19.108623027801517,50.80280050000002,61.8753379634742
19.124269008636475,66.56647950000001,71.75850880479197
19.124269008636475,47.63510550000001,40.38148129344896
19.124974966049194,49.02260850000002,48.364225699349824
19.124974966049194,26.082062500000006,35.9093252908147
19.13858199119568,41.168818500000015,58.64481363194904
19.13858199119568,59.292373500000025,60.66233150118711
19.154209852218628,56.69314350000002,60.01580641552496
19.154209852218628,41.93549850000002,61.991935166592
19.15501093864441,29.541469500000005,31.509548056278437
19.15501093864441,39.66163950000001,34.53139512768403
19.168516874313354,32.47355150000001,27.183659391192784
19.168516874313354,52.37729850000002,58.6765788975315
19.184246063232425,36.2732895,27.74342965061267
19.184246063232425,40.3684805,23.893580508813923
19.18498587608337,20.236598500000014,15.723378136026934
19.18498587608337,25.0610695,30.061060062263067
19.198565006256104,27.963231500000006,10.400698864551693
19.198565006256104,39.814974500000005,14.612265379688878
19.21424698829651,34.018129500000015,39.78228568458408
19.21424698829651,24.331789500000014,28.95146204827762
19.2149498462677,10.15008850000001,11.316998380098855
19.2149498462677,14.42479450000002,14.119832474047968
19.22855496406555,-17.465332499999988,-4.663302703505801
19.22855496406555,-18.811696499999982,4.122951427311474
19.244282960891724,5.007726500000018,15.865630044354312
19.244282960891724,17.13248150000001,34.704660033513704
19.24484395980835,14.843662500000022,49.03594648890562
19.24484395980835,36.770696500000014,74.17771694975306
19.25861883163452,49.336760500000025,49.07035154631678
19.25861883163452,25.27424350000001,0.6805744583728028
19.27425193786621,33.3374685,-7.162869108930089
19.27425193786621,3.7585995000000025,-38.10856722590445
19.274999856948853,9.862116500000011,-0.8163628514548211
19.274999856948853,13.35144250000002,-14.642237951334597
19.288522958755493,-11.675967499999985,-23.730713687795728
19.288522958755493,53.16641750000002,40.46231952318601
19.30425786972046,56.45752950000002,27.93133640936644
19.30425786972046,62.11973850000001,37.15961772015791
19.304970026016235,75.4861405,53.75290410735387
19.304970026016235,53.97423650000002,72.95925256956329
19.31865096092224,70.60931150000002,86.3357376890582
19.31865096092224,127.63530550000002,146.63850737287123
19.334272861480716,65.12661750000001,92.97717246469696
19.334272861480716,126.99204250000004,173.7659058815908
19.334944009780884,146.9556285,171.68278732212875
19.334944009780884,69.22928850000002,62.41505617697039
19.34854888916016,142.1797765,140.04303558245158
19.34854888916016,94.2342595,94.59911426911812
19.364362955093384,86.49266650000001,77.36093496895592
19.364362955093384,115.34599450000002,100.26604329711132
19.365095853805546,32.7839625,25.360848793582168
19.365095853805546,128.16637150000005,135.70732642184385
19.37875199317932,-43.42397849999999,-47.00125239935238
19.37875199317932,130.68706450000002,120.71611188218878
19.39435195922852,101.36250850000002,109.02507167058846
19.39435195922852,54.262208500000014,64.33011215559341
19.39499592781067,78.33220450000002,90.69821722914176
19.39499592781067,-10.576437499999995,-15.0005899728104
19.412269830703732,83.90465550000002,72.3313759970521
19.412269830703732,57.61689850000002,72.49496187799824
19.424257040023804,26.856221500000004,22.101685015321618
19.424257040023804,49.7855485,56.3267425257429
19.42495703697205,-67.66974949999998,-85.10959392568469
19.42495703697205,95.6778605,103.45592924037268
19.43852806091309,43.36413950000002,52.825044362284174
19.43852806091309,4.054051500000014,-5.73365898767212
19.45430898666382,-21.14539449999998,-21.87276980668145
19.45430898666382,-14.170480499999982,-17.65528573865916
19.45500588417053,14.49211250000002,20.389171085029822
19.45500588417053,-8.530711499999995,-14.917031886067244
19.468749046325684,-32.38753349999999,-25.340736790706465
19.468749046325684,-20.823762499999987,-12.779495160987809
19.484236001968384,-6.7430394999999805,-5.995160303630806
19.484236001968384,27.94079250000001,22.63514937084368
19.48498797416687,-16.44434049999998,-19.656601893967803
19.48498797416687,22.9966445,27.9881006290322
19.4985249042511,-5.445294499999989,-11.95876848322234
19.4985249042511,4.824470500000018,-4.820184546641336
19.530818939208984,-41.4567915,-56.609213454279256
19.530818939208984,8.7625855,-0.8631160368834632
19.537303924560547,-40.17400549999999,-61.54609950156039
19.537303924560547,42.2683495,26.42806511292229
19.537312984466556,0.6993615000000091,-15.068240553012547
19.537312984466556,-22.66753349999999,-40.967450292530806
19.53731894493103,-47.0217625,-67.25346873751535
19.53731894493103,-3.769819499999983,-32.68089426011102
19.543601989746094,-19.324063499999998,-45.09435907622973
19.543601989746094,17.4915125,-6.925305461160196
19.55848693847656,-16.451819499999985,-45.48452051420984
19.55848693847656,-19.170727499999984,-47.85602279504975
19.5741970539093,4.562677500000007,-23.73564392233473
19.5741970539093,-5.381716499999982,-28.42320209389096
19.57498288154602,-19.137068499999984,-43.68378317359548
19.57498288154602,-25.90628749999999,-57.50222291108005
19.588506937026978,-14.735205499999992,-39.95703779126608
19.588506937026978,10.079030500000016,-3.931340616351005
19.604228019714355,-70.09320449999998,-81.65448162820272
19.604228019714355,46.6328125,32.75713537156088
19.604920864105225,-6.159615500000001,-12.299257163514437
19.604920864105225,-17.74582549999998,-17.630466186959662
19.61859393119812,-15.707579499999994,-18.315726961630048
19.61859393119812,-8.317537499999986,-6.631581521329269
19.63420796394348,-5.950180499999988,0.0682230264787886
19.63420796394348,4.312104500000004,12.84737601619627
19.635071992874146,5.475213500000024,15.901057691965622
19.635071992874146,6.470026500000017,14.005512497759709
19.64871382713318,-14.181700499999993,-14.509376345565276
19.64871382713318,-25.42010049999999,-20.2629250742594
19.66436505317688,-6.013759499999992,-0.2410852650952923
19.66436505317688,-36.11247349999999,-28.30809761700783
19.665014028549194,34.1602465,40.471402072041926
19.665014028549194,-18.385348499999992,-3.494147667236639
19.678536891937256,2.6553285000000244,15.92992527116235
19.678536891937256,-1.1593694999999968,-4.432151818499618
19.69432091712952,-23.576329499999986,-25.3876611637854
19.69432091712952,-5.591150499999998,4.007158830011113
19.694902896881104,-1.1444094999999948,6.285822521884638
19.694902896881104,-3.949334499999992,2.7495690502564365
19.708550930023197,-11.926540499999987,-2.5408011911686064
19.708550930023197,-12.046217499999983,-2.6235283525382425
19.72426700592041,-8.111843499999992,-3.007718265333879
19.72426700592041,-19.761631499999996,-26.928436618942094
19.725584030151367,9.948133500000012,16.55686337704194
19.725584030151367,-18.422747499999986,-20.58783228354686
19.73862099647522,0.7853785000000073,12.254496756815396
19.73862099647522,10.187487500000003,12.706013215900064
19.754267930984497,-11.967679499999974,-6.802645583516838
19.754267930984497,-19.99724549999999,-9.040924476727556
19.754945039749146,-15.917014499999992,-16.94060537996988
19.754945039749146,-21.53060449999998,-20.644519514279043
19.76864790916443,-5.183501499999977,-8.863201603987374
19.76864790916443,-15.845956499999986,-6.383637019135168
19.78437900543213,-20.236598499999985,-13.593055250768048
19.78437900543213,5.897822500000018,7.323054352675849
19.78502583503723,-3.4444474999999954,-3.999032873168489
19.78502583503723,-15.385948499999984,-12.077447452450295
19.798601865768436,-9.753659499999998,-7.218591996865573
19.798601865768436,-3.560384499999998,-11.66976142159244
19.81428098678589,-8.437214499999982,-8.837715693006338
19.81428098678589,-21.22393249999999,-20.59939901489317
19.815104961395264,-5.36675649999998,2.174442176380362
19.815104961395264,-5.157322499999992,-9.737994828794768
19.82856297492981,-5.247079499999984,-4.3967027867927495
19.82856297492981,-15.617822499999988,-6.221469708074569
19.84421706199646,2.034505500000023,3.784070797550649
19.84421706199646,5.957660500000003,-1.4671916033455643
19.84486603736877,-20.210419499999983,-11.774736695785553
19.84486603736877,11.40295450000002,26.427008481510853
19.85861086845398,4.360723500000006,-0.4753398358739469
19.85861086845398,5.609849500000024,1.777119982783001
19.87428402900696,-8.276398499999999,-11.99025567049222
19.87428402900696,-24.017637499999992,-23.734902387306747
19.87508106231689,-11.94150049999999,-12.121203554190387
19.87508106231689,-1.7353134999999895,-9.556337235955912
19.888710021972656,-17.315736499999986,-19.90593599281916
19.888710021972656,-4.061531500000001,-14.839220555772544
19.904247999191284,-5.860423499999996,-18.85318292768404
19.904247999191284,-9.918214499999976,-13.16011029376754
19.905391931533813,-31.927525499999987,-32.252305231334034
19.905391931533813,-33.35242749999999,-23.55040735237837
19.918576955795288,-7.7715125,-6.740918532336803
19.918576955795288,-6.488726499999984,-19.381014144697765
19.93428897857666,-2.05320549999999,-3.864243653488776
19.93428897857666,-20.341315499999997,-11.44163560050536
19.935073852539062,-21.30621049999999,-8.813704499246
19.935073852539062,-17.46907249999998,-11.047132508027902
19.948554039001465,-26.538330499999987,-27.521299113130134
19.948554039001465,-33.62918049999999,-26.815652438453405
19.964189052581787,-12.955013499999993,-12.637756712027128
19.964189052581787,-13.16444749999998,-16.422942166580977
19.964890956878666,-24.96757249999999,-28.77567985854159
19.964890956878666,-29.552689499999985,-21.66653223013156
19.978628873825077,-11.201000499999992,-8.220190559413911
19.978628873825077,-8.3100575,-18.400179749567247
19.994343996047974,-20.307656499999997,-22.7659615514052
19.994343996047974,-29.519030499999985,-23.276733669978302
19.99495792388916,-25.86514849999999,-18.35194922342283
19.99495792388916,-17.083863499999993,-22.724902523709737
20.00853800773621,-30.63352049999999,-34.126602326621715
20.00853800773621,-36.38174649999999,-30.181724092152077
20.02458691596985,-31.347841499999987,-26.112204426021545
20.02458691596985,-14.686587499999987,-9.258542190749464
20.025718927383423,-23.658607499999988,-12.556681290987264
20.025718927383423,-42.35436749999998,-21.505992437301387
20.038740873336792,-38.57706849999998,-26.15420694122185
20.038740873336792,-24.526263499999985,-19.46971448616147
20.05422592163086,-37.73559049999999,-23.28670857171406
20.05422592163086,-51.131912499999984,-25.50584489485972
20.054934978485107,-24.324309499999984,1.2485670139770484
20.054934978485107,-27.413466499999984,-12.20289933819671
20.068613052368164,-45.72401649999999,-15.028080491521578
20.068613052368164,-39.45968449999998,-7.683678170385434
20.08431196212769,-34.152766499999984,-9.99773120810918
20.08431196212769,-26.549549499999983,-12.11203672526378
20.084930896759037,-34.69505149999999,-23.198300993580453
20.084930896759037,-45.0844935,-26.413384885012587
20.09930992126465,-43.12852649999999,-37.38993517574862
20.09930992126465,-22.016791499999982,-11.29235496732861
20.10004186630249,-25.72303149999999,-12.512708139112046
20.113667011260983,-36.74825649999998,-20.65928713666892
20.113667011260983,-3.104116499999975,4.09062393806815
20.12934684753418,5.744486500000022,10.923685396496992
20.12934684753418,17.644847500000026,30.713007804111648
20.13005900382996,-15.995552499999988,7.272584750893898
20.13005900382996,22.97420550000001,40.63700267125116
20.143709897994995,21.074336500000012,29.86068562316325
20.143709897994995,58.233982500000025,76.88848300450722
20.175586938858032,41.29971550000002,51.2523843260994
20.175586938858032,27.52192350000001,43.35936520865687
20.176313877105716,54.44546350000002,66.95275967023822
20.176313877105716,-18.452666499999992,-6.230362739323475
20.177140951156616,90.18394750000002,109.00725858543215
20.177140951156616,33.38234650000001,37.31296300765906
20.17778205871582,51.03467450000002,57.624137627392365
20.17778205871582,64.25896150000003,65.13441473751368
20.18864393234253,44.056021500000014,40.47988670665274
20.18864393234253,-30.18847249999999,-50.7863662009913
20.204177856445312,64.31505950000002,28.98467211360586
20.204177856445312,107.00227750000002,68.19139242124105
20.21936297416687,36.16109250000002,19.10983549127492
20.21936297416687,5.830504500000018,2.440908550547115
20.220094919204712,0.6956215000000157,-23.86410025274332
20.220094919204712,-39.06325549999998,-50.35900414558763
20.23355197906494,6.997352500000005,3.802212221882876
20.23355197906494,17.3082565,0.9089059904752405
20.24919605255127,-24.32056949999999,-37.41255715590689
20.24919605255127,-53.0654405,-47.6304535155155
20.249923944473267,-14.922200499999988,22.41105932840715
20.249923944473267,-55.76564849999998,-35.864785423337885
20.26355004310608,-47.17135849999998,-34.84386224943954
20.26355004310608,-10.355782499999975,4.1566719468558375
20.279213905334476,-32.21175849999999,-30.707023330108846
20.279213905334476,-52.91958449999999,-56.72261184303997
20.27995586395264,-65.77362049999999,-76.83536840342776
20.27995586395264,-31.01125049999999,-33.72547840093825
20.29355001449585,-86.15607549999999,-89.38724901473826
20.29355001449585,-47.67998449999999,-44.93691306497915
20.309324026107788,-68.42146949999999,-79.11367128988029
20.309324026107788,-59.273674499999984,-64.01848543721941
20.310057878494263,-76.88860349999999,-64.66610885834216
20.310057878494263,-144.4012775,-129.7433430213749
20.3236620426178,-66.50664049999999,-40.94438788845098
20.3236620426178,-53.046740499999984,-45.37277112168252
20.339370012283325,-67.9726815,-46.432378659515706
20.339370012283325,-67.19104249999998,-42.56566633195232
20.34000897407532,-89.6416625,-68.29673262956277
20.34000897407532,-42.79941549999998,-15.074766343695906
20.35361385345459,-77.4047095,-48.21423383121962
20.35361385345459,-113.7266175,-84.45637330808482
20.36971092224121,-102.3722815,-80.21657328106363
20.36971092224121,-130.8890185,-107.69281276161652
20.37003493309021,-73.38805649999999,-32.99419838537958
20.37003493309021,-36.77443649999999,1.546601676560698
20.383579969406128,-62.5423465,-25.30901722806925
20.383579969406128,-86.4702265,-44.38781521601629
20.399248838424683,-97.4767525,-52.82495843179346
20.399248838424683,-145.3736515,-93.65294075071166
20.400166034698486,-41.39695249999998,19.99607215567112
20.400166034698486,-57.95722949999998,13.055469813403704
20.413552045822144,-99.9637855,-21.7314095390999
20.413552045822144,-78.16390949999999,-1.8053439741870532
20.42924690246582,-95.65916149999998,-23.37493380579517
20.42924690246582,-68.27561349999999,13.30932055972292
20.430121898651123,-131.9810695,-37.52658698456105
20.430121898651123,-94.7167065,0.1998193277072744
20.443821907043457,-42.99762949999999,45.53293963592901
20.443821907043457,-71.11045749999998,9.34463567490114
20.45918583869934,-97.8320425,-5.336345551182802
20.45918583869934,-83.38854949999998,3.5527857070465245
20.460083961486816,-85.26971949999998,-11.04724089277002
20.460083961486816,-102.0805695,-26.37795392040813
20.47353792190552,-82.93228149999999,3.878708042125368
20.47353792190552,-92.36804949999998,-14.324416223746596
20.48924398422241,-57.94974949999998,3.2444206610125548
20.48924398422241,-50.75418249999999,2.77817806895159
20.48988389968872,-73.24220049999998,-6.625650093390831
20.48988389968872,-61.13240449999999,-12.071592571965349
20.503614902496334,-66.34956549999998,-30.3923855905799
20.503614902496334,-74.03505949999999,-38.30840999045
20.51942491531372,-68.96375549999999,-40.88032402233569
20.51942491531372,-64.76758749999999,-42.91239801551142
20.52017188072205,-56.04614049999999,-54.330853836254896
20.52017188072205,-52.57177349999999,-54.90702112535451
20.539374828338623,-63.87749149999999,-58.786006907688986
20.539374828338623,-53.39455149999999,-55.309970331329936
20.549219846725464,-52.53811449999999,-59.445355569527095
20.549219846725464,-54.64367849999999,-70.09819582808841
20.549924850463867,-53.64886449999999,-58.02078751666687
20.549924850463867,-32.45485149999999,-43.58080526139361
20.563578844070435,-38.92861849999999,-64.63033588599271
20.563578844070435,-53.45065049999998,-75.58078220013616
20.579330921173096,-52.68023049999999,-68.03274445059732
20.579330921173096,-49.546194499999984,-64.80714989731528
20.580085039138797,-35.865640499999984,-61.71172841010701
20.580085039138797,-24.960092499999988,-50.83410180191058
20.593512058258057,-49.22830349999998,-51.27050382088601
20.593512058258057,-47.73982249999999,-52.54540752405194
20.609304904937744,-36.39296649999999,-46.86441796423341
20.609304904937744,-41.33337449999999,-51.19227039065149
20.610005855560303,-56.57346649999998,-62.155762974803565
20.610005855560303,-51.68915749999999,-58.5183380518254
20.64006185531616,-33.16543249999998,-37.25293334106511
20.64006185531616,-35.880600499999986,-33.52321460194117
20.640748023986816,-53.20755649999998,-48.2126752498677
20.640748023986816,-49.81172749999999,-46.72986738405695
20.641474962234497,-32.48851049999999,-35.42893295628872
20.641474962234497,-35.28595649999998,-39.53550596955014
20.653645038604736,-50.91499849999998,-41.5013860345906
20.653645038604736,-47.36583249999998,-33.61109853471411
20.669250965118408,-29.814482499999983,-16.898967080173534
20.669250965118408,-39.138053499999984,-29.90815151849464
20.67000389099121,-65.41085049999998,-57.58380136215382
20.67000389099121,-40.73125049999999,-32.409372714781576
20.683599948883057,-35.60010749999999,-32.43123944650621
20.683599948883057,-32.79518249999998,-25.03848838127155
20.69942092895508,-47.98291649999999,-36.04121223106222
20.69942092895508,-33.32624849999999,-21.20477298624919
20.699954986572266,-35.31961549999998,-20.33612557673125
20.699954986572266,-33.064455499999994,-30.44119734735409
20.729975938797,-44.49732949999999,-40.33644467064224
20.729975938797,-29.148780499999987,-24.200697116276444
20.73074603080749,-27.817375499999983,-26.18652308206461
20.73074603080749,-33.10185449999999,-30.313225637499013
20.731390953063965,-27.671519499999988,-27.867297388484563
20.731390953063965,-31.748010499999992,-34.24202129823868
20.7482168674469,-26.063362499999982,-29.82411718127397
20.7482168674469,-18.632181499999987,-28.14436427530319
20.76068687438965,-37.97868449999999,-35.53981841436475
20.76068687438965,-39.22407049999998,-42.984691461792885
20.76069688796997,-28.352181499999983,-39.94362376207354
20.76069688796997,-33.82365549999999,-34.562813170169925
20.773639917373657,-30.517583499999983,-35.914234731949
20.773639917373657,-27.140453499999992,-36.58685327897307
20.78921389579773,-25.16578649999998,-41.35781175470975
20.78921389579773,-36.000276499999984,-47.66931816348247
20.78997802734375,-40.7275105,-39.806859733804856
20.78997802734375,-37.57477449999999,-43.29745374550552
20.803639888763428,-42.739576499999984,-49.84876908178472
20.803639888763428,-34.81098849999999,-46.31436212191487
20.819355010986328,-41.53532849999999,-42.86435132455125
20.819355010986328,-23.82690249999999,-22.2657114500949
20.820037841796875,-20.539530499999984,-34.30440024499359
20.820037841796875,-18.60226249999998,-20.74734800225477
20.83351182937622,-44.65440549999998,-41.96293579611593
20.83351182937622,-45.95963049999999,-39.90768155896935
20.84931993484497,-29.657406499999997,-39.15767168355234
20.84931993484497,-43.19210449999999,-57.43016616592487
20.850096940994263,-45.80629449999999,-44.62255378599569
20.850096940994263,-17.10256249999999,-21.687085103798434
20.86352586746216,-4.439261499999986,-7.758545293689535
20.86352586746216,-10.830750499999994,-12.62996149990144
20.879382848739624,-19.223085499999986,-20.258518161822806
20.879382848739624,12.84655650000002,0.5676508650528689
20.87999200820923,44.669365500000026,37.45027816790675
20.87999200820923,82.21422050000001,86.65226274845617
20.893626928329468,75.27296650000002,88.72097866454209
20.893626928329468,57.02973450000002,73.08103097825104
20.9093029499054,35.5365295,41.68747931106084
20.9093029499054,65.59036550000002,69.96376670202265
20.91010689735413,104.0851555,111.21546065313316
20.91010689735413,100.3302965,106.93362280479072
20.923604011535645,72.94300850000002,78.12674518099803
20.923604011535645,61.73078850000002,75.24677557257787
20.93940687179565,7.236706500000025,24.967721028739508
20.93940687179565,80.17597550000002,86.99777450835697
20.940115928649902,69.73791450000002,69.47524308030054
20.940115928649902,49.7518895,59.2376764338253
20.953568935394287,117.32066150000004,143.3476516041448
20.953568935394287,75.8900495,96.20810703356372
20.97011089324951,-2.2850784999999973,7.854626532273341
20.97011089324951,22.764771500000023,31.93343095243715
20.970265865325928,10.987826500000011,27.213215985835905
20.970265865325928,43.1734055,52.59368740279616
20.98351192474365,-30.480184499999996,-22.227446181144916
20.98351192474365,123.4840165,131.4333403769932
20.999145984649655,81.82527150000001,96.62067574801878
20.999145984649655,32.72786450000001,37.08297923384589
21.014281034469604,49.08992650000002,48.12216558495934
21.014281034469604,37.31298150000001,38.02409617115612
21.015033960342407,9.544224500000013,15.635999403480136
21.015033960342407,8.983239500000025,15.075480535168571
21.029518842697144,-56.42013049999999,-57.66766188501065
21.029518842697144,16.79215050000002,15.863729373087228
21.03015899658203,-8.538191499999982,-6.171927997340182
21.03015899658203,15.931973500000026,18.771512898865318
21.04355788230896,60.859391500000015,63.7467470996949
21.04355788230896,-1.0546514999999772,-3.425055362106777
21.059360027313232,-15.341069499999987,-15.050876036063102
21.059360027313232,-15.060577499999994,-16.755806451710953
21.060056924819943,38.64438650000002,34.71206323083416
21.060056924819943,10.875629500000002,5.613992701479116
