time_s,raw_eeg1,raw_eeg2,raw_eeg3,raw_eeg4,fil_eeg1,fil_eeg2,fil_eeg3,fil_eeg4
0.0,-7.342977612373458e-05,7.346216565036413,0.003171463613684526,-0.0024511528326454507,-7.342977612373458e-05,7.346216565036413,0.003171463613684526,-0.0024511528326454507
0.0008158683776855469,0.01827699645578771,7.27069588496641,0.0169342837550974,0.008486373975321312,0.01827699645578771,7.27069588496641,0.0169342837550974,0.008486373975321312
0.0008878707885742188,-0.01706715632714661,7.589041528911339,-0.018004257821590174,-0.02650811365224217,-0.01706715632714661,7.589041528911339,-0.018004257821590174,-0.02650811365224217
0.02998185157775879,-0.020298062736756606,7.605538730754743,-0.016913303284800004,-0.03111670208295528,-0.020298062736756606,7.605538730754743,-0.016913303284800004,-0.03111670208295528
0.030037879943847656,-0.006905886351094826,7.349209698392404,0.005430299208438166,-0.003751906462658123,-0.006905886351094826,7.349209698392404,0.005430299208438166,-0.003751906462658123
0.030606985092163086,0.019591738935915787,7.311271029969626,0.02186456151086769,0.01950082543454423,0.019591738935915787,7.311271029969626,0.02186456151086769,0.01950082543454423
0.030638933181762695,-0.017990272711309055,7.653407889590053,-0.02778788868187459,-0.019619711026395172,-0.017990272711309055,7.653407889590053,-0.02778788868187459,-0.019619711026395172
0.03113698959350586,-0.018311963906283372,7.634144837209127,-0.023473021225573557,-0.013220839618067352,-0.018311963906283372,7.634144837209127,-0.023473021225573557,-0.013220839618067352
0.031174898147583008,0.0003042093396436289,7.398103375478479,0.002465139812843714,0.008759112609518855,0.0003042093396436289,7.398103375478479,0.002465139812843714,0.008759112609518855
0.03181600570678711,0.012570461868102447,7.289434440549238,0.011388593829940723,0.016248940424553982,0.012570461868102447,7.289434440549238,0.011388593829940723,0.016248940424553982
0.03184199333190918,-0.01771753407711151,7.613864258197619,-0.02008826177361696,-0.02668294716488616,-0.01771753407711151,7.613864258197619,-0.02008826177361696,-0.02668294716488616
0.05949282646179199,-0.017486754513591617,7.654152675716522,-0.01677343722265167,-0.015102037966970763,-0.017486754513591617,7.654152675716522,-0.01677343722265167,-0.015102037966970763
0.05952596664428711,-0.0003671488806186677,7.521570140904965,0.0005140084328661386,0.01042351837510063,-0.0003671488806186677,7.521570140904965,0.0005140084328661386,0.01042351837510063
0.06029486656188965,0.015808361767811578,7.517332199969837,0.020801580934474043,0.018528756489605013,0.015808361767811578,7.517332199969837,0.020801580934474043,0.018528756489605013
0.06032705307006836,-0.01617201390338068,7.801256805646076,-0.01550065568311838,-0.015304843570094137,-0.01617201390338068,7.801256805646076,-0.01550065568311838,-0.015304843570094137
0.08944296836853027,-0.015752415716935673,7.93015037353595,-0.018256017855407463,-0.022179259215742875,-0.015752415716935673,7.93015037353595,-0.018256017855407463,-0.022179259215742875
0.08948087692260742,0.006409361643476516,7.654093232920596,0.001583982499358913,0.011374608719659597,0.006409361643476516,7.654093232920596,0.001583982499358913,0.011374608719659597
0.08999085426330566,0.02197645548253664,7.37553598691182,0.0198015380291383,0.020039311082757322,0.02197645548253664,7.37553598691182,0.0198015380291383,0.020039311082757322
0.0900118350982666,-0.02389261941201857,7.582044729058872,-0.022479971810336938,-0.02678085415635685,-0.02389261941201857,7.582044729058872,-0.022479971810336938,-0.02678085415635685
0.0904848575592041,-0.018137132263556524,7.586401557455768,-0.023808699400746133,-0.02394856546289447,-0.018137132263556524,7.586401557455768,-0.023808699400746133,-0.02394856546289447
0.09050989151000977,0.004640057266242057,7.425265365495653,-0.002570038424496395,0.006122637898997852,0.004640057266242057,7.425265365495653,-0.002570038424496395,0.006122637898997852
0.09155702590942383,0.01403905552065998,7.170093723956128,0.009094790784691432,0.01423486950360137,0.01403905552065998,7.170093723956128,0.009094790784691432,0.01423486950360137
0.09157991409301758,-0.021654762417645183,7.5518616335952276,-0.028046642205791013,-0.024347183179042088,-0.021654762417645183,7.5518616335952276,-0.028046642205791013,-0.024347183179042088
0.11957693099975586,-0.01761263359554169,7.737086257080386,-0.01821405691481268,-0.015794374787613315,-0.01761263359554169,7.737086257080386,-0.01821405691481268,-0.015794374787613315
0.11961793899536133,0.008129715329851338,7.431237645227437,0.004136539068524622,0.0032623771150560865,0.008129715329851338,7.431237645227437,0.004136539068524622,0.0032623771150560865
0.12058305740356445,0.020591779971334392,7.32047771285607,0.027634037509445136,0.02093445350652325,0.020591779971334392,7.32047771285607,0.027634037509445136,0.02093445350652325
0.12061595916748047,-0.01145153337091576,7.3466151827525605,-0.024487051111107563,-0.009234656846839766,-0.01145153337091576,7.3466151827525605,-0.024487051111107563,-0.009234656846839766
0.14970803260803223,-0.01804621876218496,7.447087967935843,-0.013752329906264175,-0.020759619993879257,-0.01804621876218496,7.447087967935843,-0.013752329906264175,-0.020759619993879257
0.15000605583190918,-0.0014790838877062305,7.226970256819808,0.00992000017738319,0.0028427789286110776,-0.0014790838877062305,7.226970256819808,0.00992000017738319,0.0028427789286110776
0.15003585815429688,0.015095044476871636,6.90905470316639,0.010458485825596282,0.019759578958460654,0.015095044476871636,6.90905470316639,0.010458485825596282,0.019759578958460654
0.15004491806030273,-0.010192738811580731,7.092849195324619,-0.019899443150691847,-0.01610207900238937,-0.010192738811580731,7.092849195324619,-0.019899443150691847,-0.01610207900238937
0.15062904357910156,-0.015864307818687487,7.193720598224049,-0.015521636153415773,-0.01615802692318242,-0.015864307818687487,7.193720598224049,-0.015521636153415773,-0.01615802692318242
0.1506500244140625,0.007717110633505457,7.043060373944861,0.004961748461216376,0.016248940424553982,0.007717110633505457,7.043060373944861,0.004961748461216376,0.016248940424553982
0.15149688720703125,0.022738725334253355,6.789734965173661,0.012451576276251507,0.02913060512239919,0.022738725334253355,6.789734965173661,0.012451576276251507,0.02913060512239919
0.15152597427368164,-0.015150990527747543,6.953381752762348,-0.012640394899176614,-0.030906902989732775,-0.015150990527747543,6.953381752762348,-0.012640394899176614,-0.030906902989732775
0.17949390411376953,-0.018402877407654932,7.1345782344056,-0.02138202378344764,-0.01703918236675008,-0.018402877407654932,7.1345782344056,-0.02138202378344764,-0.01703918236675008
0.1795339584350586,0.012675362349672271,7.014842396841392,0.0025210858637196194,0.01050743838637306,0.012675362349672271,7.014842396841392,0.0025210858637196194,0.01050743838637306
0.1801450252532959,0.012514515817226539,6.751943156303131,0.018332944376580767,0.01720002889919581,0.012514515817226539,6.751943156303131,0.018332944376580767,0.01720002889919581
0.18017196655273438,-0.018920380715653495,6.831537434030766,-0.02606054337531778,-0.029424322356976985,-0.018920380715653495,6.831537434030766,-0.02606054337531778,-0.029424322356976985
0.20956897735595703,-0.02127013168169583,7.035860768489271,-0.024074444544844545,-0.02027008877636008,-0.02127013168169583,7.035860768489271,-0.024074444544844545,-0.02027008877636008
0.20964384078979492,0.00356308783973301,7.018318067924803,0.00602473090752716,0.010745211439992085,0.00356308783973301,7.018318067924803,0.00602473090752716,0.010745211439992085
0.21012306213378906,0.015745422226836538,6.681646474963311,0.01095500866329745,0.02014420969441001,0.015745422226836538,6.681646474963311,0.01095500866329745,0.02014420969441001
0.21013689041137695,-0.022263181096932445,6.775087492843631,-0.02531925399389845,-0.018263009475589453,-0.022263181096932445,6.775087492843631,-0.02531925399389845,-0.018263009475589453
0.21048188209533691,-0.013633444314413235,7.0413924714342295,-0.018759534183207763,-0.013801282467040953,-0.013633444314413235,7.0413924714342295,-0.018759534183207763,-0.013801282467040953
0.21050786972045898,0.013591485243735586,7.0728693289077045,0.006332436992220358,0.016192994373678073,0.013591485243735586,7.0728693289077045,0.006332436992220358,0.016192994373678073
0.21152997016906738,0.011997010639310841,6.723595803372663,0.028032655225592753,0.029494255388051154,0.011997010639310841,6.723595803372663,0.028032655225592753,0.029494255388051154
0.21155405044555664,-0.01521393006872258,6.7998752546794154,-0.009968952738159963,-0.017682566626615857,-0.01521393006872258,6.7998752546794154,-0.009968952738159963,-0.017682566626615857
0.23963284492492676,-0.01999035665206341,7.179136065434994,-0.0220533801337928,-0.020402961348409285,-0.01999035665206341,7.179136065434994,-0.0220533801337928,-0.020402961348409285
0.23967504501342773,0.006507268634947204,7.272160981873919,0.0075912315515553885,0.007856976695653797,0.006507268634947204,7.272160981873919,0.0075912315515553885,0.007856976695653797
0.24032902717590332,0.014773353281897316,6.865947982064307,0.012941107493770684,0.021200198650621668,0.014773353281897316,6.865947982064307,0.012941107493770684,0.021200198650621668
0.24036192893981934,-0.020871512095631074,6.81744942594933,-0.021997434082916892,-0.031172648133831186,-0.020871512095631074,6.81744942594933,-0.021997434082916892,-0.031172648133831186
0.2697310447692871,-0.018311963906283372,7.109909358161667,-0.023724779389473705,-0.01696225584557678,-0.018311963906283372,7.109909358161667,-0.023724779389473705,-0.01696225584557678
0.26977086067199707,0.009759153644937459,7.440531744870202,0.007150652894812988,0.003451195737981201,0.009759153644937459,7.440531744870202,0.007150652894812988,0.003451195737981201
0.2702150344848633,0.020829553024953422,7.272643519601339,0.01461950023955072,0.014423688126526477,0.020829553024953422,7.272643519601339,0.01461950023955072,0.014423688126526477
0.2702460289001465,-0.014241861123783357,7.49190105200427,-0.024689856714230934,-0.02556401866769947,-0.014241861123783357,7.49190105200427,-0.024689856714230934,-0.02556401866769947
0.27057790756225586,-0.01452858673817916,7.899883358061034,-0.014381727185931689,-0.016710497681676633,-0.01452858673817916,7.899883358061034,-0.014381727185931689,-0.016710497681676633
0.2706029415130615,-0.00140915085663206,8.27906724042552,0.001758816012002902,-0.0036749799414848242,-0.00140915085663206,8.27906724042552,0.001758816012002902,-0.0036749799414848242
0.27172398567199707,0.02422829758719114,8.667975312724284,0.013864223877933134,0.01942389891337094,0.02422829758719114,8.667975312724284,0.013864223877933134,0.01942389891337094
0.2717628479003906,-0.01777348012798742,8.323548144933742,-0.025780811251021104,-0.016220966464157455,-0.01777348012798742,8.323548144933742,-0.025780811251021104,-0.016220966464157455
0.2995939254760742,-0.017731519187392637,8.69982281395351,-0.013129926116695792,-0.01029064580305142,-0.017731519187392637,8.69982281395351,-0.013129926116695792,-0.01029064580305142
0.2996339797973633,0.006493281654748944,8.86040303841008,0.00023427630856946366,0.008101741369454817,0.006493281654748944,8.86040303841008,0.00023427630856946366,0.008101741369454817
0.32952094078063965,0.017689560116714985,9.020007697176663,0.016423772067280833,0.01629789298533076,0.017689560116714985,9.020007697176663,0.016423772067280833,0.01629789298533076
0.329556941986084,-0.009535369441433834,8.826076410387813,-0.021018371647878537,-0.019465857984048575,-0.009535369441433834,8.826076410387813,-0.021018371647878537,-0.019465857984048575
0.32999300956726074,-0.018214056914812683,8.432622692939146,-0.018011251311689305,-0.017221007499576065,-0.018214056914812683,8.432622692939146,-0.018011251311689305,-0.017221007499576065
0.33002495765686035,0.011689306424534784,8.621218088896061,0.006563214685823118,0.0032483901348578266,0.011689306424534784,8.621218088896061,0.006563214685823118,0.0032483901348578266
0.33054184913635254,0.030067706616842757,8.958592508913346,0.022836630455806913,0.0232422435319708,0.030067706616842757,8.958592508913346,0.022836630455806913,0.0232422435319708
0.33055901527404785,-0.01879450163370342,8.94175263540467,-0.023137343050400976,-0.019822516629518547,-0.01879450163370342,8.94175263540467,-0.023137343050400976,-0.019822516629518547
0.3311760425567627,-0.01854274346980327,8.70843157026573,-0.02455698414218173,-0.01992042362098924,-0.01854274346980327,8.70843157026573,-0.02455698414218173,-0.01992042362098924
0.3311948776245117,0.0057519922733296185,8.863990603465162,0.025591992628095996,0.012381643245177338,0.0057519922733296185,8.863990603465162,0.025591992628095996,0.012381643245177338
0.33237504959106445,0.020137216204310873,8.945347193949848,0.018619669990976574,0.033823109824550446,0.020137216204310873,8.945347193949848,0.018619669990976574,0.033823109824550446
0.33240294456481934,-0.022857610926104305,8.81736275546394,-0.02555702517760034,-0.026004597324441873,-0.022857610926104305,8.81736275546394,-0.02555702517760034,-0.026004597324441873
0.3597550392150879,-0.020451913909186065,8.566376605553716,-0.01515798401784667,-0.017955305260813396,-0.020451913909186065,8.566376605553716,-0.01515798401784667,-0.017955305260813396
0.3597910404205322,0.006290476051625573,8.776972934208516,0.007409404548812264,0.011185788226817348,0.006290476051625573,8.776972934208516,0.007409404548812264,0.011185788226817348
0.3601808547973633,0.022563891821609366,8.954326594017822,0.02835434829048421,0.024305225978281584,0.022563891821609366,8.954326594017822,0.02835434829048421,0.024305225978281584
0.360213041305542,-0.021633783817264933,8.770661477686591,-0.022780684404931004,-0.028256439429096378,-0.021633783817264933,8.770661477686591,-0.022780684404931004,-0.028256439429096378
0.38970398902893066,-0.01044449884539802,8.557271326403793,-0.01684337025372584,-0.018346929486861886,-0.01044449884539802,8.557271326403793,-0.01684337025372584,-0.018346929486861886
0.38974499702453613,0.001933647654729748,8.760706510058712,0.0136474312946115,0.009143743345468209,0.001933647654729748,8.760706510058712,0.0136474312946115,0.009143743345468209
0.3901090621948242,0.026277335958639417,8.859105781525118,0.0217037168483391,0.024389144119636875,0.026277335958639417,8.859105781525118,0.0217037168483391,0.024389144119636875
0.3901379108428955,-0.015850320838489224,8.665104561705194,-0.029389354906481327,-0.032389481752571433,-0.015850320838489224,8.665104561705194,-0.029389354906481327,-0.032389481752571433
0.3907608985900879,-0.013542530813041674,8.472414587620348,-0.020458907399285194,-0.01276627398112669,-0.013542530813041674,8.472414587620348,-0.020458907399285194,-0.01276627398112669
0.3907918930053711,0.01252150930732567,8.705536343901212,0.01571744826644002,0.014535580228278295,0.01252150930732567,8.705536343901212,0.01571744826644002,0.014535580228278295
0.3918750286102295,0.014255848103981615,8.585405383495988,0.01448662766750151,0.022976498387872395,0.014255848103981615,8.585405383495988,0.01448662766750151,0.022976498387872395
0.39208984375,-0.025682906129467557,8.595318390183273,-0.03311678602370964,-0.03563437514237969,-0.025682906129467557,8.595318390183273,-0.03311678602370964,-0.03563437514237969
0.41947388648986816,-0.01633285856590927,8.576062331292446,-0.0167035041915775,-0.008374480003652355,-0.01633285856590927,8.576062331292446,-0.0167035041915775,-0.008374480003652355
0.4195058345794678,0.0008706670783361035,8.839122416493236,0.012150863681657444,0.006451322584071301,0.0008706670783361035,8.839122416493236,0.012150863681657444,0.006451322584071301
0.4204130172729492,0.021242157721299303,8.85863722890798,0.0167035041915775,0.026773860666257723,0.021242157721299303,8.85863722890798,0.0167035041915775,0.026773860666257723
0.420428991317749,-0.02092046652632499,8.52574901311459,-0.022549904841411107,-0.02780187566207285,-0.02092046652632499,8.52574901311459,-0.022549904841411107,-0.02780187566207285
0.449847936630249,-0.017318914491046757,8.361773538970915,-0.010367572324224718,-0.013766316886462437,-0.017318914491046757,8.361773538970915,-0.010367572324224718,-0.013766316886462437
0.44989585876464844,0.001549016918780394,8.565901061316394,0.006780007269144753,0.01732590798114589,0.001549016918780394,8.565901061316394,0.006780007269144753,0.01732590798114589
0.4505939483642578,0.018717575112530117,8.534375251282142,0.020367995767830775,0.02160580985686841,0.018717575112530117,8.534375251282142,0.020367995767830775,0.02160580985686841
0.45064783096313477,-0.01505308540619399,8.53405356008717,-0.02914459023268031,-0.02871799855613617,-0.01505308540619399,8.53405356008717,-0.02914459023268031,-0.02871799855613617
0.4510979652404785,-0.01828398994588685,8.612434499071195,-0.015892281779084007,-0.016661543250982718,-0.01828398994588685,8.612434499071195,-0.015892281779084007,-0.016661543250982718
0.451138973236084,0.010745209570074942,8.994324791047196,0.004024646966772811,0.008801071680196497,0.010745209570074942,8.994324791047196,0.004024646966772811,0.008801071680196497
0.45181989669799805,0.02201142106311515,8.923832297594352,0.016871344214122366,0.02414437944583586,0.02201142106311515,8.923832297594352,0.016871344214122366,0.02414437944583586
0.4518468379974365,-0.023277209112549317,8.566600391627137,-0.030885922519435383,-0.02683680020723276,-0.023277209112549317,8.566600391627137,-0.030885922519435383,-0.02683680020723276
0.47953200340270996,-0.01290614004327503,8.709627425284092,-0.013493578252264896,-0.018172097844135034,-0.01290614004327503,8.709627425284092,-0.013493578252264896,-0.018172097844135034
0.47956299781799316,0.02192750105184272,9.004730825697049,0.013004047034745721,0.018724568602629253,0.02192750105184272,9.004730825697049,0.013004047034745721,0.018724568602629253
0.4802708625793457,0.03434760849256528,8.802876127796438,0.022151287125263496,0.01621397297405833,0.03434760849256528,8.802876127796438,0.022151287125263496,0.01621397297405833
0.4802839756011963,0.0004860344724696101,8.361857458982188,-0.02327720911254931,-0.018011251311689305,0.0004860344724696101,8.361857458982188,-0.02327720911254931,-0.018011251311689305
0.5096268653869629,-0.0014790838877062305,8.565964000857369,-0.016990229805973305,-0.02619341594736698,-0.0014790838877062305,8.565964000857369,-0.016990229805973305,-0.02619341594736698
0.5096709728240967,0.01241660882575585,8.328894526000823,0.00994797413777971,0.013570504773438196,0.01241660882575585,8.328894526000823,0.00994797413777971,0.013570504773438196
0.5099680423736572,0.030382404321717946,7.992558609344588,0.032109751498191896,0.01921409982014843,0.030382404321717946,7.992558609344588,0.032109751498191896,0.01921409982014843
0.5099940299987793,-0.015039098425995729,8.340311091921244,-0.027990694284997966,-0.021836587550471163,-0.015039098425995729,8.340311091921244,-0.027990694284997966,-0.021836587550471163
0.5104620456695557,-0.011717278515014171,8.682556348768289,-0.009731181554458073,-0.012353669284780811,-0.011717278515014171,8.682556348768289,-0.009731181554458073,-0.012353669284780811
0.5104889869689941,0.010080846709828914,8.53894537551731,0.018095171322961737,0.012402623715474733,0.010080846709828914,8.53894537551731,0.018095171322961737,0.012402623715474733
0.511491060256958,0.026466154581564524,8.172356430366355,0.022521932750931725,0.023326163543243236,0.026466154581564524,8.172356430366355,0.022521932750931725,0.023326163543243236
0.511509895324707,-0.02289257837659996,8.479834480534391,-0.023067410019326808,-0.012507522327127409,-0.02289257837659996,8.479834480534391,-0.023067410019326808,-0.012507522327127409
0.5397870540618896,-0.01478034677199645,8.814757749588948,-0.015130010057450148,-0.02002532223264192,-0.01478034677199645,8.814757749588948,-0.015130010057450148,-0.02002532223264192
0.5398218631744385,0.009989933208457353,8.539106220179841,0.010787170510669731,0.0038498134541288184,0.009989933208457353,8.539106220179841,0.010787170510669731,0.0038498134541288184
0.540226936340332,0.028780938097111207,8.083394623219833,0.013633444314413237,0.022941530937376737,0.028780938097111207,8.083394623219833,0.013633444314413237,0.022941530937376737
0.540241003036499,-0.017745506167590897,8.376368563865034,-0.027494171447296795,-0.02619341594736698,-0.017745506167590897,8.376368563865034,-0.027494171447296795,-0.02619341594736698
0.569368839263916,-0.022717744863955967,8.048351181161573,-0.031046769051881112,-0.013136919606794924,-0.022717744863955967,8.048351181161573,-0.031046769051881112,-0.013136919606794924
0.5694029331207275,-0.009801114585532246,7.9853380234187,0.00659818213631877,0.016766443732552542,-0.009801114585532246,7.9853380234187,0.00659818213631877,0.016766443732552542
0.5700619220733643,0.014108988551734149,8.154964086099186,0.021528883335695113,0.029697060991174532,0.014108988551734149,8.154964086099186,0.021528883335695113,0.029697060991174532
0.5700838565826416,-0.030368419211436827,8.547319855520964,-0.022766697424732744,-0.02934739583580368,-0.030368419211436827,8.547319855520964,-0.022766697424732744,-0.02934739583580368
0.570551872253418,-0.02117921818032427,8.196707112160365,-0.018207063424713548,-0.02298349000805438,-0.02117921818032427,8.196707112160365,-0.018207063424713548,-0.02298349000805438
0.5705728530883789,0.0019895937056056603,7.934909316394043,0.00849336746542044,0.002779839387636044,0.0019895937056056603,7.934909316394043,0.00849336746542044,0.002779839387636044
0.5718338489532471,0.01784341315906158,8.19268596193864,0.019794544539039168,0.020521848810177375,0.01784341315906158,8.19268596193864,0.019794544539039168,0.020521848810177375
0.5718610286712646,-0.026675953674787034,8.549061187807718,-0.024249278057488534,-0.020388974368211025,-0.026675953674787034,8.549061187807718,-0.024249278057488534,-0.020388974368211025
0.599431037902832,-0.020801579064556906,8.2718361661344,-0.026354262479812714,-0.018759534183207763,-0.020801579064556906,8.2718361661344,-0.026354262479812714,-0.018759534183207763
0.5994648933410645,0.010353585344026457,8.064642080656807,0.007926909726727965,0.011878125047459897,0.010353585344026457,8.064642080656807,0.007926909726727965,0.011878125047459897
0.6001248359680176,0.02422829758719114,8.13802630559904,0.027242411413479512,0.02085053349525082,0.02422829758719114,8.13802630559904,0.027242411413479512,0.02085053349525082
0.600147008895874,-0.01828398994588685,8.435007409485767,-0.019305013321519987,-0.01405304250085824,-0.01828398994588685,8.435007409485767,-0.019305013321519987,-0.01405304250085824
0.6295268535614014,-0.012640394899176618,8.221008839523678,-0.01506007702637598,-0.014913217474128512,-0.012640394899176618,8.221008839523678,-0.01506007702637598,-0.014913217474128512
0.6295609474182129,0.014304800664758388,7.89787977737523,0.011199775207015608,0.015067072386392256,0.014304800664758388,7.89787977737523,0.011199775207015608,0.015067072386392256
0.6299879550933838,0.027613057039147737,8.03604296769252,0.024745802765106847,0.03285104087961123,0.027613057039147737,8.03604296769252,0.024745802765106847,0.03285104087961123
0.6300039291381836,-0.02094843861680437,8.284798252228553,-0.028871851598482767,-0.022514939260832593,-0.02094843861680437,8.284798252228553,-0.028871851598482767,-0.022514939260832593
0.6304409503936768,-0.013374692660413953,8.08640873704612,-0.018773521163406023,-0.014004088070164327,-0.013374692660413953,8.08640873704612,-0.018773521163406023,-0.014004088070164327
0.6304659843444824,0.01129768032856916,7.732949718011862,0.012507522327127416,0.020892492565928466,0.01129768032856916,7.732949718011862,0.012507522327127416,0.020892492565928466
0.6316218376159668,0.024354178539058358,7.769269438354701,0.02006028968313758,0.03648056500536885,0.024354178539058358,7.769269438354701,0.02006028968313758,0.03648056500536885
0.6316478252410889,-0.021116278639349232,8.13582691280021,-0.02401849849396864,-0.027403257945925234,-0.021116278639349232,8.13582691280021,-0.02401849849396864,-0.027403257945925234
0.6596169471740723,-0.009486415010739917,7.86523853558884,-0.018242030875209203,-0.007129672424515588,-0.009486415010739917,7.86523853558884,-0.018242030875209203,-0.007129672424515588
0.6596570014953613,0.0076052166618365055,7.445252225402666,0.016360832526305793,0.009954967627878841,0.0076052166618365055,7.445252225402666,0.016360832526305793,0.009954967627878841
0.6603360176086426,0.016556644639330036,7.540105890884669,0.013388679640612217,0.023494001695870948,0.016556644639330036,7.540105890884669,0.013388679640612217,0.023494001695870948
0.6604180335998535,-0.021808615459991784,7.8869842115078574,-0.02606054337531778,-0.023130349560301845,-0.021808615459991784,7.8869842115078574,-0.02606054337531778,-0.023130349560301845
0.6895389556884766,-0.013199859147769964,7.713113214402145,-0.015801368277712446,-0.009913006687284055,-0.013199859147769964,7.713113214402145,-0.015801368277712446,-0.009913006687284055
0.6897189617156982,0.00909479078469143,7.276860481936086,0.02327021562245019,0.015549610113812302,0.00909479078469143,7.276860481936086,0.02327021562245019,0.015549610113812302
0.6901178359985352,0.030410378282114466,7.45361971191622,0.024109411995340207,0.030836969958658613,0.030410378282114466,7.45361971191622,0.024109411995340207,0.030836969958658613
0.6901810169219971,-0.023773733820167623,6.999110961594755,-0.028228467338616992,-0.016004173880835817,-0.023773733820167623,6.999110961594755,-0.028228467338616992,-0.016004173880835817
0.6905889511108398,-0.013283779159042393,6.914061907443334,-0.024312217598463574,-0.020661713002408565,-0.013283779159042393,6.914061907443334,-0.024312217598463574,-0.020661713002408565
0.6906239986419678,0.01987147106021246,6.687314547225368,0.014004089940081472,0.021479930774918336,0.01987147106021246,6.687314547225368,0.014004089940081472,0.021479930774918336
0.6915948390960693,0.02507448745018029,6.866073861146256,0.011122848685842311,0.026871767657728415,0.02507448745018029,6.866073861146256,0.011122848685842311,0.026871767657728415
0.6916208267211914,-0.02482972277637928,6.551619991596052,-0.03243843618326535,-0.026368247590093832,-0.02482972277637928,6.551619991596052,-0.03243843618326535,-0.026368247590093832
0.7193889617919922,-0.010801157490867993,6.5041249732615425,-0.015304843570094137,-0.009780134115234849,-0.010801157490867993,6.5041249732615425,-0.015304843570094137,-0.009780134115234849
0.7194199562072754,0.006052702998006544,6.139008120378112,0.004563130745068762,0.009388509889186367,0.006052702998006544,6.139008120378112,0.004563130745068762,0.009388509889186367
0.7204499244689941,0.02481573579618101,6.254485036536894,0.03201883799682034,0.02931243025522517,0.02481573579618101,6.254485036536894,0.03201883799682034,0.02931243025522517
0.7204649448394775,-0.009458442920260535,6.709584719942483,-0.027368290495429583,-0.010773183530471466,-0.009458442920260535,6.709584719942483,-0.027368290495429583,-0.010773183530471466
0.7498409748077393,-0.019612717536296044,6.571288655183224,-0.018507776019307615,-0.011857144577162504,-0.019612717536296044,6.571288655183224,-0.018507776019307615,-0.011857144577162504
0.7498860359191895,0.009199689396344113,6.891155343956453,0.016458739517776485,0.018388890427456676,0.009199689396344113,6.891155343956453,0.016458739517776485,0.018388890427456676
0.7501449584960938,0.02703960581035613,6.906732926160744,0.03171812540222628,0.0347462262087129,0.02703960581035613,6.906732926160744,0.03171812540222628,0.0347462262087129
0.750175952911377,-0.020186168765087654,6.562585490494499,-0.022766697424732744,-0.02744521701660288,-0.020186168765087654,6.562585490494499,-0.022766697424732744,-0.02744521701660288
0.750525951385498,-0.01855673045000153,6.34976879044049,-0.008912963781948308,-0.016493705098354995,-0.01855673045000153,6.34976879044049,-0.008912963781948308,-0.016493705098354995
0.7505478858947754,0.0052344870954139176,6.69607715471002,0.015262884499416495,0.01690630979470088,0.0052344870954139176,6.69607715471002,0.015262884499416495,0.01690630979470088
0.7514638900756836,0.024522016691686077,6.733117183963982,0.02484370975657754,0.029438309337175245,0.024522016691686077,6.733117183963982,0.02484370975657754,0.029438309337175245
0.7514889240264893,-0.01146552035111402,6.443993058642824,-0.023787720800365883,-0.021885541981165078,-0.01146552035111402,6.443993058642824,-0.023787720800365883,-0.021885541981165078
0.7796919345855713,-0.009451449430161404,6.30576692691464,-0.001255297814285461,-0.008829043770675879,-0.009451449430161404,6.30576692691464,-0.001255297814285461,-0.008829043770675879
0.7797338962554932,0.007717110633505457,6.552231905150472,0.017444795442913972,0.013892197838329654,0.007717110633505457,6.552231905150472,0.017444795442913972,0.013892197838329654
0.7803690433502197,0.02079458557445777,6.629546366813056,0.032529349684636916,0.028011676625212503,0.02079458557445777,6.629546366813056,0.032529349684636916,0.028011676625212503
0.7804019451141357,-0.022298146677510962,6.373101945603915,-0.02599061034424361,-0.03173910587252367,-0.022298146677510962,6.373101945603915,-0.02599061034424361,-0.03173910587252367
0.8096108436584473,-0.006940853801590479,6.210783885605639,-0.009409488489566617,-0.013122932626596662,-0.006940853801590479,6.210783885605639,-0.009409488489566617,-0.013122932626596662
0.8096518516540527,0.011164807756519951,6.52345446379841,0.013990102959883208,0.010150779740903088,0.011164807756519951,6.52345446379841,0.013990102959883208,0.010150779740903088
0.8099789619445801,0.019067240267900958,6.568781556299702,0.018969335146347414,0.018025238291887572,0.019067240267900958,6.568781556299702,0.018969335146347414,0.018025238291887572
0.8100090026855469,-0.011486500821411413,6.342401344962355,-0.0251304335010562,-0.020570799501037004,-0.011486500821411413,6.342401344962355,-0.0251304335010562,-0.020570799501037004
0.8106749057769775,-0.008234613941504022,6.24737284596771,-0.006339428612402345,-0.008437419544627393,-0.008234613941504022,6.24737284596771,-0.006339428612402345,-0.008437419544627393
0.8107080459594727,0.014122975531932409,6.465193255423529,0.0006538744950144726,0.01840987089775407,0.014122975531932409,6.465193255423529,0.0006538744950144726,0.01840987089775407
0.811741828918457,0.019353965882296757,6.4673716696219765,0.028822899037705994,0.025319253993898453,0.019353965882296757,6.4673716696219765,0.028822899037705994,0.025319253993898453
0.811784029006958,-0.021053339098374195,6.29714068687717,-0.034879098780762105,-0.022640818342782667,-0.021053339098374195,6.29714068687717,-0.034879098780762105,-0.022640818342782667
0.8396990299224854,-0.010087840199928049,6.189552218119488,-0.00943746244996314,-0.0024091918920506675,-0.010087840199928049,6.189552218119488,-0.00943746244996314,-0.0024091918920506675
0.8397738933563232,0.009059823334195779,6.345726659748469,0.019794544539039168,0.022927543957178474,0.009059823334195779,6.345726659748469,0.019794544539039168,0.022927543957178474
0.8402259349822998,0.022703757883757704,6.362779829095418,0.025389187024972625,0.01889240862517411,0.022703757883757704,6.362779829095418,0.025389187024972625,0.01889240862517411
0.8402769565582275,-0.02024211481596356,6.23885150641181,-0.03235451617199292,-0.03152930677930116,-0.02024211481596356,6.23885150641181,-0.03235451617199292,-0.03152930677930116
0.8697538375854492,-0.008612253057271386,6.190838984769302,-0.0041225520883263565,-0.014346759735436036,-0.008612253057271386,6.190838984769302,-0.0041225520883263565,-0.014346759735436036
0.8698060512542725,0.010178751831382468,6.3197745135997705,0.015081057496673381,0.021885541981165085,0.010178751831382468,6.3197745135997705,0.015081057496673381,0.021885541981165085
0.8708329200744629,0.032109751498191896,6.349359680619276,0.027836843112568514,0.025578005647897733,0.032109751498191896,6.349359680619276,0.027836843112568514,0.025578005647897733
0.8708939552307129,-0.01836091646706015,6.254789244006621,-0.03171113191212714,-0.02796272219451858,-0.01836091646706015,6.254789244006621,-0.03171113191212714,-0.02796272219451858
0.8713948726654053,-0.017283948910468243,6.180971433897746,-0.01976657057864264,-0.01805321038236695,-0.017283948910468243,6.180971433897746,-0.01976657057864264,-0.01805321038236695
0.8714249134063721,0.012304716724004036,6.326774808327369,0.014171928092709191,0.017864393629358984,0.012304716724004036,6.326774808327369,0.014171928092709191,0.017864393629358984
0.8716928958892822,0.029417328866877854,6.323508936337181,0.029829933563223738,0.02187155500096682,0.029417328866877854,6.323508936337181,0.029829933563223738,0.02187155500096682
0.8717100620269775,-0.026410208530688623,6.2127909630364915,-0.03865548245876718,-0.03179505192339957,-0.026410208530688623,6.2127909630364915,-0.03865548245876718,-0.03179505192339957
0.8997929096221924,-0.01692729026499827,6.159715289196248,-0.011024941694371616,-0.013262798688744998,-0.01692729026499827,6.159715289196248,-0.011024941694371616,-0.013262798688744998
0.8998310565948486,0.014150949492328932,6.377997257779107,0.02145895030462094,0.021242157721299306,0.014150949492328932,6.377997257779107,0.02145895030462094,0.021242157721299306
0.900439977645874,0.024549990652082604,6.33719832670247,0.023165317010797496,0.027808869152171987,0.024549990652082604,6.33719832670247,0.023165317010797496,0.027808869152171987
0.9004688262939453,-0.010668283048901647,6.212563680218021,-0.03364827631190646,-0.024920634407833694,-0.010668283048901647,6.212563680218021,-0.03364827631190646,-0.024920634407833694
0.9294970035552979,-0.007835996225356405,6.266908638852748,-0.012668368859573138,-0.019221093310247555,-0.007835996225356405,6.266908638852748,-0.012668368859573138,-0.019221093310247555
0.9295358657836914,8.741675632199276e-05,6.401900367426275,0.01399709644998234,0.009283609407616543,8.741675632199276e-05,6.401900367426275,0.01399709644998234,0.009283609407616543
0.9302680492401123,0.024165358046216105,6.358884559825562,0.015465690102539873,0.023277209112549314,0.024165358046216105,6.358884559825562,0.015465690102539873,0.023277209112549314
0.9302978515625,-0.017969292241011663,6.2908886750210895,-0.02029106924665747,-0.019871469190295324,-0.017969292241011663,6.2908886750210895,-0.02029106924665747,-0.019871469190295324
0.9305758476257324,-0.012955094473968944,6.373087958623716,-0.012479548366730887,-0.009682227123764158,-0.012955094473968944,6.373087958623716,-0.012479548366730887,-0.009682227123764158
0.9306309223175049,0.009360535928789838,6.4944637266080765,0.014906225853946523,0.014570547678773946,0.009360535928789838,6.4944637266080765,0.014906225853946523,0.014570547678773946
0.9316890239715576,0.01849378903910935,6.381864553088566,0.025822772191615894,0.02896276509985433,0.01849378903910935,6.381864553088566,0.025822772191615894,0.02896276509985433
0.9317739009857178,-0.019591738935915794,6.406449511191145,-0.02701163184995961,-0.03049429642346976,-0.019591738935915794,6.406449511191145,-0.02701163184995961,-0.03049429642346976
0.9599039554595947,-0.013311753119438916,6.447926790238308,-0.02392059337241509,-0.015717448266440018,-0.013311753119438916,6.447926790238308,-0.02392059337241509,-0.015717448266440018
0.9599549770355225,0.01624894042455398,6.529258905377566,0.013836249917536608,0.02151489635549685,0.01624894042455398,6.529258905377566,0.013836249917536608,0.02151489635549685
0.9604899883270264,0.03365526980200559,6.464612812574556,0.02767599658012278,0.03320070603498207,0.03365526980200559,6.464612812574556,0.02767599658012278,0.03320070603498207
0.9606108665466309,-0.016514685568652394,6.430772219024757,-0.027221430943182114,-0.020395967858310153,-0.016514685568652394,6.430772219024757,-0.027221430943182114,-0.020395967858310153
0.9897940158843994,-0.012843200502299992,6.5201955834284036,-0.025249320962824284,-0.013185872167571699,-0.012843200502299992,6.5201955834284036,-0.025249320962824284,-0.013185872167571699
0.989832878112793,0.015297850079995007,6.514968089823088,0.015025111445797466,0.019983363161964276,0.015297850079995007,6.514968089823088,0.015025111445797466,0.019983363161964276
0.9902069568634033,0.022745718824352487,6.439321530671137,0.02355694123684599,0.02671791461538182,0.022745718824352487,6.439321530671137,0.02355694123684599,0.02671791461538182
0.9902410507202148,-0.01955677148542014,6.443667868832883,-0.02743123003640462,-0.019976369671865144,-0.01955677148542014,6.443667868832883,-0.02743123003640462,-0.019976369671865144
0.9906668663024902,-0.016752456752354282,6.460598655842931,-0.020312047847037724,-0.017990270841391914,-0.016752456752354282,6.460598655842931,-0.020312047847037724,-0.017990270841391914
0.9906928539276123,0.01241660882575585,6.5489450526899855,0.02065472138222658,0.014472640687303254,0.01241660882575585,6.5489450526899855,0.02065472138222658,0.014472640687303254
0.991797924041748,0.03397346612184748,-1.8850098645846194,0.017822432688764194,0.02797321242966728,0.03397346612184748,-1.8850098645846194,0.017822432688764194,0.02797321242966728
1.0198099613189697,-0.013916673183759472,-1.8438158125368849,-0.03126356163520275,-0.029225013498903173,-0.013916673183759472,-1.8438158125368849,-0.03126356163520275,-0.029225013498903173
1.0198650360107422,-0.013182375422522137,-1.7582387648423174,-0.021193205160522526,-0.014874755148500432,-0.013182375422522137,-1.7582387648423174,-0.021193205160522526,-0.014874755148500432
1.0202739238739014,0.00981859644086293,-1.7940130060468455,0.00994797413777971,0.004615580050895102,0.00981859644086293,-1.7940130060468455,0.00994797413777971,0.004615580050895102
1.0202970504760742,0.02365834497336624,-1.92748019304702,0.013046007975340505,0.026882257892877116,0.02365834497336624,-1.92748019304702,0.013046007975340505,0.026882257892877116
1.021009922027588,-0.02491713953270127,-1.8710267551148354,-0.027906776143642675,-0.028273923154344204,-0.02491713953270127,-1.8710267551148354,-0.027906776143642675,-0.028273923154344204
1.021043062210083,-0.007643680857381727,-1.7448395949665565,-0.01660559720010681,-0.018902896990405666,-0.007643680857381727,-1.7448395949665565,-0.01660559720010681,-0.018902896990405666
1.049865961074829,0.010636814213372694,-1.8218323654341662,0.012038971579905626,0.00544078944358686,0.010636814213372694,-1.8218323654341662,0.012038971579905626,0.00544078944358686
1.0499188899993896,0.025987113599194048,-1.9901401888894745,0.023088390489624206,0.02511295164572552,0.025987113599194048,-1.9901401888894745,0.023088390489624206,0.02511295164572552
1.050112009048462,-0.027840339857618072,-1.7972544008216873,-0.0213960107636459,-0.02424578131243897,-0.027840339857618072,-1.7972544008216873,-0.0213960107636459,-0.02424578131243897
1.0501348972320557,-0.007594726426687812,-1.7137683505692458,-0.01277326747122582,-0.010545900712001136,-0.007594726426687812,-1.7137683505692458,-0.01277326747122582,-0.010545900712001136
1.0511279106140137,0.014762863046748622,-1.8131676630710685,0.020256101796161826,0.010510935131422625,0.014762863046748622,-1.8131676630710685,0.020256101796161826,0.010510935131422625
1.051156997680664,0.022105831309536278,-1.9768529129853825,0.022458993209956684,0.022427522504510602,0.022105831309536278,-1.9768529129853825,0.022458993209956684,0.022427522504510602
1.0795960426330566,-0.018406374152704498,-1.8403261544732756,-0.024340191558860094,-0.029511739113298976,-0.018406374152704498,-1.8403261544732756,-0.024340191558860094,-0.029511739113298976
1.0796279907226562,-0.012881664697845211,-1.7211882453532066,-0.015388763581366567,-0.015329318915523957,-0.012881664697845211,-1.7211882453532066,-0.015388763581366567,-0.015329318915523957
1.0800600051879883,0.0068953961159461275,-1.8366441810416916,0.017297935890666503,0.010343095108877765,0.0068953961159461275,-1.8366441810416916,0.017297935890666503,0.010343095108877765
1.080122947692871,0.02569339449469911,-2.005259710581693,0.012976074944266336,0.02607103361046648,0.02569339449469911,-2.005259710581693,0.012976074944266336,0.02607103361046648
1.080960988998413,-0.022462489955006257,-1.9321202503132617,-0.042424872646673134,-0.02689624300315823,-0.022462489955006257,-1.9321202503132617,-0.042424872646673134,-0.02689624300315823
1.0810019969940186,-0.011252224512841951,-1.7899044409387175,-0.007157644514994973,-0.010021402043986305,-0.011252224512841951,-1.7899044409387175,-0.007157644514994973,-0.010021402043986305
1.109510898590088,0.014483130922451947,-1.6868721056961702,0.021626790327165798,0.011888615282608594,0.014483130922451947,-1.6868721056961702,0.021626790327165798,0.011888615282608594
1.1095428466796875,0.01790984944508618,-2.1188694135018533,0.02513043537097334,0.026931210453653886,0.01790984944508618,-2.1188694135018533,0.02513043537097334,0.026931210453653886
1.1100080013275146,-0.023049926294078982,-2.0548492212334604,-0.027466197486900275,-0.01811265504820956,-0.023049926294078982,-2.0548492212334604,-0.027466197486900275,-0.01811265504820956
1.1100318431854248,-0.009566838276962784,-1.7379966481564368,-0.011780218055989205,-0.015049586791227284,-0.009566838276962784,-1.7379966481564368,-0.011780218055989205,-0.015049586791227284
1.1112048625946045,0.009755656899887893,-1.9615830368657843,0.015116024947169033,0.015678985940811938,0.009755656899887893,-1.9615830368657843,0.015116024947169033,0.015678985940811938
1.1112339496612549,0.021476434029868763,-2.264658802821197,0.024060459434563423,0.021063829333522893,0.021476434029868763,-2.264658802821197,0.024060459434563423,0.021063829333522893
1.139754056930542,-0.01883995931934777,-1.8886114147499806,-0.03110271510275702,-0.030371914086569248,-0.01883995931934777,-1.8886114147499806,-0.03110271510275702,-0.030371914086569248
1.1397900581359863,-0.008895481926617623,-1.637188184797982,-0.01012280578050656,-0.015014621210648768,-0.008895481926617623,-1.637188184797982,-0.01012280578050656,-0.015014621210648768
1.1400020122528076,0.015888785034034437,-1.875012937886063,0.023480014715672685,0.021147749344795314,0.015888785034034437,-1.875012937886063,0.023480014715672685,0.021147749344795314
1.140028953552246,0.02152538659064554,-2.138590528264769,0.030871937409154265,0.029532719583596368,0.02152538659064554,-2.138590528264769,0.030871937409154265,0.029532719583596368
1.1410019397735596,-0.023154826775648805,-1.8217554389129929,-0.031221600694607964,-0.0253507228294274,-0.023154826775648805,-1.8217554389129929,-0.031221600694607964,-0.0253507228294274
1.141023874282837,-0.014518096503030464,-1.7956983922827248,-0.023123356070202713,-0.015063573771425545,-0.014518096503030464,-1.7956983922827248,-0.023123356070202713,-0.015063573771425545
1.169611930847168,0.014434176491758032,-1.9446172824052406,0.02429123899808332,0.02000084688721211,0.014434176491758032,-1.9446172824052406,0.02429123899808332,0.02000084688721211
1.1696460247039795,0.023007967223401336,-2.063062856574584,0.024808742306081887,0.021875051746016384,0.023007967223401336,-2.063062856574584,0.024808742306081887,0.021875051746016384
1.170367956161499,-0.02114075585469619,-1.826678723178664,-0.026018584304640133,-0.03395947914164922,-0.02114075585469619,-1.826678723178664,-0.026018584304640133,-0.03395947914164922
1.1703970432281494,-0.015315333805242836,-1.5834166773920457,-0.020920466526324986,-0.012406118590607154,-0.015315333805242836,-1.5834166773920457,-0.020920466526324986,-0.012406118590607154
1.170996904373169,0.0038323297288809875,-1.778435423842554,0.015871301308786615,0.015581078949341246,0.0038323297288809875,-1.778435423842554,0.015871301308786615,0.015581078949341246
1.1710188388824463,0.017728022442343068,-2.045271892721349,0.021934494541941855,0.02921802000880405,0.017728022442343068,-2.045271892721349,0.021934494541941855,0.02921802000880405
1.1997709274291992,-0.01716156657356773,-1.7889778278095054,-0.03506791740368721,-0.021749172664066306,-0.01716156657356773,-1.7889778278095054,-0.03506791740368721,-0.021749172664066306
1.1998019218444824,-0.020336525062384685,-1.6171593658202905,-0.01780844570856593,-0.014790835137228002,-0.020336525062384685,-1.6171593658202905,-0.01780844570856593,-0.014790835137228002
1.2000548839569092,0.010461980700728705,-1.8065485004644524,0.01766158615631847,0.009077307059443606,0.010461980700728705,-1.8065485004644524,0.01766158615631847,0.009077307059443606
1.2000670433044434,0.02165126567259562,-2.0438872190800637,0.005115601503562977,0.024021997108935347,0.02165126567259562,-2.0438872190800637,0.005115601503562977,0.024021997108935347
1.200718879699707,-0.023056919784178113,-1.7970760724339108,-0.02845924690213689,-0.024406627844884697,-0.023056919784178113,-1.7970760724339108,-0.02845924690213689,-0.024406627844884697
1.200739860534668,-0.0168678474690728,-1.5249806373744377,-0.01055639094714983,-0.009797617840482676,-0.0168678474690728,-1.5249806373744377,-0.01055639094714983,-0.009797617840482676
1.2297048568725586,0.00844790977977609,-1.8165069648373808,0.017528713584269263,0.015294353334945446,0.00844790977977609,-1.8165069648373808,0.017528713584269263,0.015294353334945446
1.2297379970550537,0.026001100579392304,-2.06334958218898,0.02043792879890494,0.0316796630765982,0.026001100579392304,-2.06334958218898,0.02043792879890494,0.0316796630765982
1.230003833770752,-0.030742559712237487,-1.7896351971796522,-0.035018964842910436,-0.030420868517263163,-0.030742559712237487,-1.7896351971796522,-0.035018964842910436,-0.030420868517263163
1.230017900466919,-0.01661608743525551,-1.5189314311214805,-0.024731815784908583,-0.014231370888634656,-0.01661608743525551,-1.5189314311214805,-0.024731815784908583,-0.014231370888634656
1.2309930324554443,0.015434219397093779,-1.7844077035743375,0.022144293635164364,0.014322284390006216,0.015434219397093779,-1.7844077035743375,0.022144293635164364,0.014322284390006216
1.2310149669647217,0.02067220323755726,-2.1377443384017796,0.018682609531951607,0.027448715631569583,0.02067220323755726,-2.1377443384017796,0.018682609531951607,0.027448715631569583
1.2597320079803467,-0.01908472399314879,-1.7692147539759124,-0.044620770570368874,-0.02712702256667813,-0.01908472399314879,-1.7692147539759124,-0.044620770570368874,-0.02712702256667813
1.2597830295562744,-0.009720691319309381,-1.5447437130779478,-0.017255974950071716,-0.015385266836317002,-0.009720691319309381,-1.5447437130779478,-0.017255974950071716,-0.015385266836317002
1.2603249549865723,0.0178678885044914,-1.7979956920730238,0.025438139585749395,0.018567220685150227,0.0178678885044914,-1.7979956920730238,0.025438139585749395,0.018567220685150227
1.2603719234466553,0.030294989435313086,-2.0878750956257157,0.02259885927210503,0.02379821103551458,0.030294989435313086,-2.0878750956257157,0.02259885927210503,0.02379821103551458
1.2610979080200195,-0.02027358552140965,-1.7338705993230608,-0.03647357151526971,-0.021329574477621297,-0.02027358552140965,-1.7338705993230608,-0.03647357151526971,-0.021329574477621297
1.2611520290374756,-0.011804695271336166,-1.3931498821794486,-0.012661375369474006,-0.012741796765779733,-0.011804695271336166,-1.3931498821794486,-0.012661375369474006,-0.012741796765779733
1.2893810272216797,0.014972662139971124,-1.7857434246548458,0.005549186670206246,0.013692887110338708,0.014972662139971124,-1.7857434246548458,0.005549186670206246,0.013692887110338708
1.289414882659912,0.026385731315341658,-2.075378063533737,0.028193501758038485,0.022434515994609733,0.026385731315341658,-2.075378063533737,0.028193501758038485,0.022434515994609733
1.2899048328399658,-0.021819105695140478,-1.7009251481970287,-0.02232611876799034,-0.023357632378772177,-0.021819105695140478,-1.7009251481970287,-0.02232611876799034,-0.023357632378772177
1.2899229526519775,-0.003580571564980841,-1.443473690592453,-0.012696340950052521,-0.014776848157029742,-0.003580571564980841,-1.443473690592453,-0.012696340950052521,-0.014776848157029742
1.2909698486328125,0.015329320785441096,-1.7383288295865598,0.007234572906085417,0.013783800611710268,0.015329320785441096,-1.7383288295865598,0.007234572906085417,0.013783800611710268
1.2909929752349854,0.02121068888577035,-2.12728935119115,0.020990399557399158,0.027210942577950568,0.02121068888577035,-2.12728935119115,0.020990399557399158,0.027210942577950568
1.3194448947906494,-0.017077646562295302,-1.6963095681461333,-0.023556941236845985,-0.019364456117445458,-0.017077646562295302,-1.6963095681461333,-0.023556941236845985,-0.019364456117445458
1.3194739818572998,-0.011713781769964605,-1.3674075351239727,-0.014997137485400942,-0.01151796965694036,-0.011713781769964605,-1.3674075351239727,-0.014997137485400942,-0.01151796965694036
1.3198390007019043,0.009965455993110396,-1.771498066786013,0.012381643245177338,0.014951681669673738,0.009965455993110396,-1.771498066786013,0.012381643245177338,0.014951681669673738
1.3198578357696533,0.027875305438196586,-2.133093792770306,0.022521932750931725,0.030735568092055496,0.027875305438196586,-2.133093792770306,0.022521932750931725,0.030735568092055496
1.320693016052246,-0.024483554366058,-1.7552771003218555,-0.031816032393696965,-0.025567515412749035,-0.024483554366058,-1.7552771003218555,-0.031816032393696965,-0.025567515412749035
1.3207149505615234,-0.017909849445086192,-1.3793171290069615,-0.011633358503741737,-0.010958505408347013,-0.017909849445086192,-1.3793171290069615,-0.011633358503741737,-0.010958505408347013
1.3496298789978027,0.009580825257161042,-1.7922961491055203,0.018885415135074978,0.017336398216294586,0.009580825257161042,-1.7922961491055203,0.018885415135074978,0.017336398216294586
1.349668025970459,0.022098837819437146,-2.18413091847425,0.015556603603911427,0.025392683770022188,0.022098837819437146,-2.18413091847425,0.015556603603911427,0.025392683770022188
1.3499889373779297,-0.020007840377311237,-2.5935958032938533,-0.02768299007022191,-0.020105745498864784,-0.020007840377311237,-2.5935958032938533,-0.02768299007022191,-0.020105745498864784
1.3501150608062744,-0.018511272764357184,-2.29617062587525,-0.011689306424534782,-0.011427056155568799,-0.018511272764357184,-2.29617062587525,-0.011689306424534782,-0.011427056155568799
1.3507208824157715,0.009720691319309376,-2.730619086513578,0.009346548948591583,0.021525386590645543,0.009720691319309376,-2.730619086513578,0.009346548948591583,0.021525386590645543
1.3507380485534668,0.02260235601715458,-3.119852346752366,0.017367868921740675,0.026777357411307292,0.02260235601715458,-3.119852346752366,0.017367868921740675,0.026777357411307292
1.379709005355835,-0.015273374734565191,-3.5347859949759517,-0.03731276788815972,-0.023168811885929924,-0.015273374734565191,-3.5347859949759517,-0.03731276788815972,-0.023168811885929924
1.3797390460968018,-0.013783800611710266,-3.206478389913046,-0.012787254451424082,-0.008350002788305397,-0.013783800611710266,-3.206478389913046,-0.012787254451424082,-0.008350002788305397
1.3799669742584229,0.014056539245907806,-2.781984896902596,0.022116321544684975,0.01686085397897367,0.014056539245907806,-2.781984896902596,0.022116321544684975,0.01686085397897367
1.3799898624420166,0.016434262302429524,-3.1283422156028196,0.026529095992456706,0.02075612324882969,0.016434262302429524,-3.1283422156028196,0.026529095992456706,0.02075612324882969
1.3807759284973145,-0.012825718646969304,-3.549653756634353,-0.018549735089985257,-0.02449054598623999,-0.012825718646969304,-3.549653756634353,-0.018549735089985257,-0.02449054598623999
1.380795955657959,-0.010189242066531165,-3.222828732204203,-0.000877658698518094,-0.01246206464148306,-0.010189242066531165,-3.222828732204203,-0.000877658698518094,-0.01246206464148306
1.4097468852996826,0.014860768168302172,-2.787957178504297,0.01580836176781158,0.01935746262734633,0.014860768168302172,-2.787957178504297,0.01580836176781158,0.01935746262734633
1.409782886505127,0.024896159062403875,-3.17607850186608,0.019193121219768173,0.022021911298263853,0.024896159062403875,-3.17607850186608,0.019193121219768173,0.022021911298263853
1.4099819660186768,-0.020084766898484534,-3.5748296478210535,-0.024843707886660397,-0.03010616894247084,-0.020084766898484534,-3.5748296478210535,-0.024843707886660397,-0.03010616894247084
1.4100079536437988,-0.011189284971866912,-3.217625715814235,-0.01573842873673741,-0.013252308453596302,-0.011189284971866912,-3.217625715814235,-0.01573842873673741,-0.013252308453596302
1.4111380577087402,0.014378230440882126,-2.765991213256909,0.011773226435807218,0.027134016056777264,0.014378230440882126,-2.765991213256909,0.011773226435807218,0.027134016056777264
1.4111669063568115,0.02367932357374649,-3.1829878849622246,0.02000434363226167,0.02228066482218027,0.02367932357374649,-3.1829878849622246,0.02000434363226167,0.02228066482218027
1.439460039138794,-0.01740633124736875,-3.5427653540085062,-0.023563934726945117,-0.023784222185399176,-0.01740633124736875,-3.5427653540085062,-0.023563934726945117,-0.023784222185399176
1.4394919872283936,-0.013098457281166846,-3.1448044518656455,-0.0183189573963825,-0.0144271830016589,-0.013098457281166846,-3.1448044518656455,-0.0183189573963825,-0.0144271830016589
1.4399800300598145,0.015525132898465339,-2.809104925979175,0.019256060760743213,0.012783757706374518,0.015525132898465339,-2.809104925979175,0.019256060760743213,0.012783757706374518
1.4399960041046143,0.01837840019230797,-3.219527894633436,0.018738555582827516,0.02481923254123058,0.01837840019230797,-3.219527894633436,0.018738555582827516,0.02481923254123058
1.4411430358886719,-0.02879842182235904,-3.5228973796933434,-0.02940334188667959,-0.030162114993346745,-0.02879842182235904,-3.5228973796933434,-0.02940334188667959,-0.030162114993346745
1.4411590099334717,-0.012056455305153453,-3.1209852603598334,-0.01114382728622256,-0.012608924193730527,-0.012056455305153453,-3.1209852603598334,-0.01114382728622256,-0.012608924193730527
1.4696509838104248,0.013902686203561209,-2.8172591166544563,0.01623495344435572,0.02157434102133946,0.013902686203561209,-2.8172591166544563,0.01623495344435572,0.02157434102133946
1.4696810245513916,0.02771445890575086,-3.193086215397301,0.027053592790554398,0.025938161038417274,0.02771445890575086,-3.193086215397301,0.027053592790554398,0.025938161038417274
1.4697730541229248,-0.023420571919747217,-3.514456463403666,-0.026088517335714302,-0.025119943265907503,-0.023420571919747217,-3.514456463403666,-0.026088517335714302,-0.025119943265907503
1.4697999954223633,-0.017238491224823894,-3.1257057408922986,-0.011108861705644046,-0.021749172664066306,-0.017238491224823894,-3.1257057408922986,-0.011108861705644046,-0.021749172664066306
1.4709210395812988,0.0074898278150351254,-2.774725848651081,0.00796886879740561,0.013909679693660342,0.0074898278150351254,-2.774725848651081,0.00796886879740561,0.013909679693660342
1.4709389209747314,0.021140755854696186,-3.196743713483455,0.017731519187392634,0.021833092675338738,0.021140755854696186,-3.196743713483455,0.017731519187392634,0.021833092675338738
1.4999098777770996,-0.023511485421118777,-3.4911407900955718,-0.03223563058014197,-0.030490801548337332,-0.023511485421118777,-3.4911407900955718,-0.03223563058014197,-0.030490801548337332
1.499953031539917,-0.004300882346019915,-3.0842004878847384,-0.006898892860995692,-0.012287232998756208,-0.004300882346019915,-3.0842004878847384,-0.006898892860995692,-0.012287232998756208
1.500412940979004,0.018098668068011296,-2.7637113971918583,0.015255891009317363,0.017930829915383587,0.018098668068011296,-2.7637113971918583,0.015255891009317363,0.017930829915383587
1.5004408359527588,0.021364540058199807,-3.203897861253401,0.02254291322122912,0.02891031579402799,0.021364540058199807,-3.203897861253401,0.02254291322122912,0.02891031579402799
1.5009708404541016,-0.017399337757269623,-3.4913785631491905,-0.03260627433589307,-0.019385434717825712,-0.017399337757269623,-3.4913785631491905,-0.03260627433589307,-0.019385434717825712
1.5010018348693848,-0.011636857118708445,-3.9454572250490627,-0.013976115979684942,-0.014846781188103909,-0.011636857118708445,-3.9454572250490627,-0.013976115979684942,-0.014846781188103909
1.529515027999878,0.005035178237340109,-3.661822839862352,0.013780303866660699,0.010790667255719297,0.005035178237340109,-3.661822839862352,0.013780303866660699,0.010790667255719297
1.5295429229736328,0.02339259795935069,-3.2384797460545354,0.015570588714192552,0.017818935943714632,0.02339259795935069,-3.2384797460545354,0.015570588714192552,0.017818935943714632
1.529876947402954,-0.005433795953487728,-3.489063779633644,-0.01406003599095737,-0.0310642509072118,-0.005433795953487728,-3.489063779633644,-0.01406003599095737,-0.0310642509072118
1.5299038887023926,-0.013189368912621268,-3.9050778921588716,-0.016402791596983435,-0.001965118360175839,-0.013189368912621268,-3.9050778921588716,-0.016402791596983435,-0.001965118360175839
1.53084397315979,0.016336355310958832,-3.681187295979798,0.021137259109646627,0.019616216151262748,0.016336355310958832,-3.681187295979798,0.021137259109646627,0.019616216151262748
1.5308690071105957,0.024917139532701263,-3.298950837463394,0.01533281753049066,0.019483343579213542,0.024917139532701263,-3.298950837463394,0.01533281753049066,0.019483343579213542
1.5594420433044434,-0.016748960007304716,-3.4630347050938552,-0.02052884043035936,-0.022868101161253,-0.016748960007304716,-3.4630347050938552,-0.02052884043035936,-0.022868101161253
1.5594849586486816,-0.011524963147039493,-3.9159524794258633,-0.007003793342565514,-0.012958589349101369,-0.011524963147039493,-3.9159524794258633,-0.007003793342565514,-0.012958589349101369
1.5600049495697021,0.009496905245888613,-3.7239093844760154,0.014115982041833283,0.01364393454956193,0.009496905245888613,-3.7239093844760154,0.014115982041833283,0.01364393454956193
1.5600390434265137,0.031931421240498345,-3.3009788953645445,0.022913556976980217,0.024245781312438975,0.031931421240498345,-3.3009788953645445,0.022913556976980217,0.024245781312438975
1.5610840320587158,-0.021105788404200534,-3.47821017283695,-0.02324224166205366,-0.02858862272913653,-0.021105788404200534,-3.47821017283695,-0.02324224166205366,-0.02858862272913653
1.561100959777832,-0.012909636788324595,-3.8974272196813073,-0.016493705098354995,-0.011385097084891153,-0.012909636788324595,-3.8974272196813073,-0.016493705098354995,-0.011385097084891153
1.5898079872131348,0.01674196651720558,-3.751539925240411,0.024487051111107567,0.021126768874497926,0.01674196651720558,-3.751539925240411,0.024487051111107567,0.021126768874497926
1.589843988418579,0.02493112464298239,-3.3033636100412482,0.028620093434582623,0.021742179173967185,0.02493112464298239,-3.3033636100412482,0.028620093434582623,0.021742179173967185
1.590155839920044,-0.020084766898484534,-3.472070053082621,-0.03219366963954719,-0.027092055116182474,-0.020084766898484534,-3.472070053082621,-0.03219366963954719,-0.027092055116182474
1.5901780128479004,-0.011937567843385372,-3.8876575758012213,-0.013290772649141521,-0.017000720041122002,-0.011937567843385372,-3.8876575758012213,-0.013290772649141521,-0.017000720041122002
1.619351863861084,0.015490165447969684,-3.657088374219606,0.015941234339860787,0.014126472276981984,0.015490165447969684,-3.657088374219606,0.015941234339860787,0.014126472276981984
1.619385004043579,0.023231753296822102,-3.2830550589392598,0.02782285613237025,0.02651161226720888,0.023231753296822102,-3.2830550589392598,0.02782285613237025,0.02651161226720888
1.620197057723999,-0.023819189635894834,-3.416067682172411,-0.016710497681676633,-0.01998685990701384,-0.023819189635894834,-3.416067682172411,-0.016710497681676633,-0.01998685990701384
1.6202208995819092,-0.016825886528478013,-3.797450959205644,-0.020675699982606828,-0.015336312405623087,-0.016825886528478013,-3.797450959205644,-0.020675699982606828,-0.015336312405623087
1.6205909252166748,0.013776807121611135,-3.7053771312413604,0.014060035990957377,0.012378146500127772,0.013776807121611135,-3.7053771312413604,0.014060035990957377,0.012378146500127772
1.6207308769226074,0.020721157668251174,-3.2846635186539657,0.016773437222651674,0.019777060813791342,0.020721157668251174,-3.2846635186539657,0.016773437222651674,0.019777060813791342
1.6217169761657715,-0.0225813755468572,-3.410822704841848,-0.029459287937555496,-0.02152538659064554,-0.0225813755468572,-3.410822704841848,-0.029459287937555496,-0.02152538659064554
1.6217429637908936,-0.009895522962036232,-3.7654985574948476,-0.020367993897913633,-0.010112315545357863,-0.009895522962036232,-3.7654985574948476,-0.020367993897913633,-0.010112315545357863
1.6496288776397705,0.005559675035437804,-3.5938968880889544,0.012598435828498972,0.010622827233174436,0.005559675035437804,-3.5938968880889544,0.012598435828498972,0.010622827233174436
1.6496639251708984,0.022070863859040626,-3.3225532345159667,0.022773690914831873,0.02336462586887131,0.022070863859040626,-3.3225532345159667,0.022773690914831873,0.02336462586887131
1.6500580310821533,-0.030057216381694063,-3.339609900607965,-0.044641749170749125,-0.029078153946655708,-0.030057216381694063,-3.339609900607965,-0.044641749170749125,-0.029078153946655708
1.6500890254974365,-0.022007924318065593,-3.7555890475526135,-0.01156342547266757,-0.006713570983120145,-0.022007924318065593,-3.7555890475526135,-0.01156342547266757,-0.006713570983120145
1.6510908603668213,-0.0028602607839417673,-3.640038701617707,0.010360578834125594,0.024630413918305467,-0.0028602607839417673,-3.640038701617707,0.010360578834125594,0.024630413918305467
1.6511108875274658,0.013511061977512723,-3.2882091227684507,0.014416694636427349,0.019979866416914713,0.013511061977512723,-3.2882091227684507,0.014416694636427349,0.019979866416914713
1.6795730590820312,-0.02353945751159816,-3.4566358336855276,-0.03893521458306386,-0.027896285908493978,-0.02353945751159816,-3.4566358336855276,-0.03893521458306386,-0.027896285908493978
1.6796050071716309,-0.01739234426717049,-3.752218275080855,-0.005891858335477954,-0.01631537484066144,-0.01739234426717049,-3.752218275080855,-0.005891858335477954,-0.01631537484066144
1.6799860000610352,0.0032239129195108674,-3.7373505134224536,0.023633867758019293,0.024266761782736363,0.0032239129195108674,-3.7373505134224536,0.023633867758019293,0.024266761782736363
1.6800010204315186,0.02386115057648961,-3.310531746661309,0.02350099518597008,0.03705051948911088,0.02386115057648961,-3.310531746661309,0.02350099518597008,0.03705051948911088
1.680816888809204,-0.01941340867822224,-3.3566246057593676,-0.02838931387106272,-0.029924343809644857,-0.01941340867822224,-3.3566246057593676,-0.02838931387106272,-0.029924343809644857
1.680837869644165,-0.014455156962055427,-2.957712615141866,-0.01192008411813754,-0.009433965704913573,-0.014455156962055427,-2.957712615141866,-0.01192008411813754,-0.009433965704913573
1.709622859954834,0.009182207541013425,-2.7860689866652946,0.02706058628065353,0.02000784037731124,0.009182207541013425,-2.7860689866652946,0.02706058628065353,0.02000784037731124
1.7096519470214844,0.015504152428167947,-2.460988791266949,0.023172310500896628,0.027154996527074652,0.015504152428167947,-2.460988791266949,0.023172310500896628,0.027154996527074652
1.7099130153656006,-0.02158832613162058,-2.526613946504998,-0.036739316659368124,-0.023399591449449822,-0.02158832613162058,-2.526613946504998,-0.036739316659368124,-0.023399591449449822
1.7099330425262451,-0.024868185102007355,-2.878772210039328,-0.009234656846839766,-0.010545900712001136,-0.024868185102007355,-2.878772210039328,-0.009234656846839766,-0.010545900712001136
1.7106389999389648,0.003265871990188513,-2.7557250446692048,0.01924906727064408,0.014483130922451955,0.003265871990188513,-2.7557250446692048,0.01924906727064408,0.014483130922451955
1.7106609344482422,0.01937144960754459,-2.5592027389855607,0.02420032549671176,0.02823196408366656,0.01937144960754459,-2.5592027389855607,0.02420032549671176,0.02823196408366656
1.7397139072418213,-0.018860937919728024,-2.5467791366697052,-0.04048073475679469,-0.025560521922649904,-0.018860937919728024,-2.5467791366697052,-0.04048073475679469,-0.025560521922649904
1.7397520542144775,-0.01056688118229853,-2.8949442239427086,-0.022703757883757704,-0.006440832348922603,-0.01056688118229853,-2.8949442239427086,-0.022703757883757704,-0.006440832348922603
1.7401988506317139,0.01571395152139045,-2.8516556777077984,0.010325611383629939,0.023168813755847065,0.01571395152139045,-2.8516556777077984,0.010325611383629939,0.023168813755847065
1.740224838256836,0.026161947111838037,-2.5627938007856903,0.009444455940062275,0.02635775922486228,0.026161947111838037,-2.5627938007856903,0.009444455940062275,0.02635775922486228
1.7409179210662842,-0.0256584289141206,-2.532817007670219,-0.04552989997433306,-0.030148128013148486,-0.0256584289141206,-2.532817007670219,-0.04552989997433306,-0.030148128013148486
1.7409470081329346,-0.009902516452135362,-2.8356445103368633,-0.003870792054509067,-0.011287190093420461,-0.009902516452135362,-2.8356445103368633,-0.003870792054509067,-0.011287190093420461
1.7697558403015137,0.012518012562276104,-2.895986225918722,0.022465986700055816,0.015091547731822069,0.012518012562276104,-2.895986225918722,0.022465986700055816,0.015091547731822069
1.7697889804840088,0.03220415987469588,-2.469412225701295,0.022836630455806913,0.029532719583596368,0.03220415987469588,-2.469412225701295,0.022836630455806913,0.029532719583596368
1.7700839042663574,-0.021266634936646264,-2.4807134027749136,-0.027829849622469375,-0.02851868969806236,-0.021266634936646264,-2.4807134027749136,-0.027829849622469375,-0.02851868969806236
1.7700979709625244,-0.001272781539533292,-2.8556838214196207,-0.007283525466862187,-0.021714205213570655,-0.001272781539533292,-2.8556838214196207,-0.007283525466862187,-0.021714205213570655
1.7708439826965332,0.009147240090517773,-2.813374337619749,0.012409617205573861,0.021441468449290253,0.009147240090517773,-2.813374337619749,0.012409617205573861,0.021441468449290253
1.7708640098571777,0.029945324279942245,-2.577423789390472,0.027459203996801147,0.026259854103308725,0.029945324279942245,-2.577423789390472,0.027459203996801147,0.026259854103308725
1.7994859218597412,-0.02012672596916218,-2.516928222636184,-0.02667595367478703,-0.03389653960067418,-0.02012672596916218,-2.516928222636184,-0.02667595367478703,-0.03389653960067418
1.7995250225067139,-0.007937398091959522,-2.8177346627616946,-0.013598476863917578,-0.020812069299705596,-0.007937398091959522,-2.8177346627616946,-0.013598476863917578,-0.020812069299705596
1.7998440265655518,0.0211757214352747,-2.876041326952303,0.023521975656267468,0.013245316833414313,0.0211757214352747,-2.876041326952303,0.023521975656267468,0.013245316833414313
1.799865961074829,0.021840086165437866,-2.594976980190088,0.024046472454365166,0.021147749344795314,0.021840086165437866,-2.594976980190088,0.024046472454365166,0.021147749344795314
1.800865888595581,-0.026245867123110465,-2.5151729033692307,-0.032277589650819616,-0.024861191611908223,-0.026245867123110465,-2.5151729033692307,-0.032277589650819616,-0.024861191611908223
1.800879955291748,-0.020154699929558702,-2.8028249401626986,-0.02427725201788506,-0.015923750614612955,-0.020154699929558702,-2.8028249401626986,-0.02427725201788506,-0.015923750614612955
1.8296709060668945,0.011552937107436012,-2.8859578303846365,0.013724357815784793,0.0182525211103579,0.011552937107436012,-2.8859578303846365,0.013724357815784793,0.0182525211103579
1.8297028541564941,0.018007754566639736,-2.593095781841185,0.02135405169296826,0.019588242190866228,0.018007754566639736,-2.593095781841185,0.02135405169296826,0.019588242190866228
1.8299708366394043,-0.011021444949322053,-2.321612262206049,-0.015255891009317362,-0.02723192117833081,-0.011021444949322053,-2.321612262206049,-0.015255891009317362,-0.02723192117833081
1.8299829959869385,0.14657263777144028,-1.9067835125941157,0.04721528621021223,-0.039435236035731736,0.14657263777144028,-1.9067835125941157,0.04721528621021223,-0.039435236035731736
1.8309240341186523,0.06917775284263346,-1.6184566227052537,0.04657889544044559,0.005042171727439242,0.06917775284263346,-1.6184566227052537,0.04657889544044559,0.005042171727439242
1.8309500217437744,0.03241395896791839,-1.7863658284444144,-0.008213633471206627,-0.019923920366038805,0.03241395896791839,-1.7863658284444144,-0.008213633471206627,-0.019923920366038805
1.8596019744873047,0.015035601680946161,-2.1309468492773043,0.006031724397626292,-0.005545688055239539,0.015035601680946161,-2.1309468492773043,0.006031724397626292,-0.005545688055239539
1.859632968902588,-0.01823154064006051,-2.1801342454678743,-0.023200282591376013,-0.006888402625846996,-0.01823154064006051,-2.1801342454678743,-0.023200282591376013,-0.006888402625846996
1.8599350452423096,-0.009608799217557567,-2.0085955156029556,0.019277039361123464,0.03287551809495819,-0.009608799217557567,-2.0085955156029556,0.019277039361123464,0.03287551809495819
1.859954833984375,-0.014937694689475473,-1.7293704099888842,0.026724908105480952,0.054771550311271955,-0.014937694689475473,-1.7293704099888842,0.026724908105480952,0.054771550311271955
1.8611068725585938,-0.035623884907231,-1.4577540159117817,-0.019151160279173386,-0.02818301152288978,-0.035623884907231,-1.4577540159117817,-0.019151160279173386,-0.02818301152288978
1.8611369132995605,-0.002783334262768467,-1.276431655186579,-0.014234867633684221,-0.020343518552483814,-0.002783334262768467,-1.276431655186579,-0.014234867633684221,-0.020343518552483814
1.8896839618682861,0.037721875839456034,-1.3675928570018483,0.024591949722760253,0.01341315498604204,0.037721875839456034,-1.3675928570018483,0.024591949722760253,0.01341315498604204
1.8897159099578857,0.04439348775189854,-1.579678757909586,0.025766826140739992,0.023378612849069575,0.04439348775189854,-1.579678757909586,0.025766826140739992,0.023378612849069575
1.8899469375610352,-0.004293888855920785,-1.7039917131990605,-0.03690715668191298,-0.046981009901642765,-0.004293888855920785,-1.7039917131990605,-0.03690715668191298,-0.046981009901642765
1.8900139331817627,0.001412647601681626,-1.9703281606251875,-0.018095171322961734,-0.011182291481767779,0.001412647601681626,-1.9703281606251875,-0.018095171322961734,-0.011182291481767779
1.8907499313354492,0.003370772471758333,-1.5541706852927624,0.016920296774899143,0.025378696789823924,0.003370772471758333,-1.5541706852927624,0.016920296774899143,0.025378696789823924
1.8907618522644043,0.021105788404200534,-1.6929387975442922,0.008024814848281516,0.030896412754584084,0.021105788404200534,-1.6929387975442922,0.008024814848281516,0.030896412754584084
1.9195489883422852,-0.03940726207533521,-1.8317978214272765,-0.04190736746875744,-0.022336609003139038,-0.03940726207533521,-1.8317978214272765,-0.04190736746875744,-0.022336609003139038
1.9195849895477295,-0.01269983769510209,-1.6111730972383913,-0.013297766139240651,-0.009608797347640424,-0.01269983769510209,-1.6111730972383913,-0.013297766139240651,-0.009608797347640424
1.9198930263519287,0.013790794101809395,-1.2159955312282167,0.017095130287543125,0.013406161495942908,0.013790794101809395,-1.2159955312282167,0.017095130287543125,0.013406161495942908
1.919914960861206,0.028812408802557296,-1.0184172365883608,0.018822475594099938,0.02791726637879138,0.028812408802557296,-1.0184172365883608,0.018822475594099938,0.02791726637879138
1.92087984085083,-0.012000507384360409,-0.7963204220018685,-0.014752372811599922,-0.029987283350619894,-0.012000507384360409,-0.7963204220018685,-0.014752372811599922,-0.029987283350619894
1.9208970069885254,-0.005846400649833609,-0.9849263081939335,-0.006388381173179122,-0.019007797471975486,-0.005846400649833609,-0.9849263081939335,-0.006388381173179122,-0.019007797471975486
1.9498169422149658,0.014741882576451227,-1.2151283608949301,0.013717364325685662,0.00672755796331841,0.014741882576451227,-1.2151283608949301,0.013717364325685662,0.00672755796331841
1.949847936630249,0.024910146042602138,-0.9287491056409961,0.023535960766548594,0.030917393224881472,0.024910146042602138,-0.9287491056409961,0.023535960766548594,0.030917393224881472
1.9501700401306152,-0.024994064183957432,-0.7934251956373481,-0.020472894379483454,-0.04088284921799187,-0.024994064183957432,-0.7934251956373481,-0.020472894379483454,-0.04088284921799187
1.9502038955688477,-0.009021361008567699,-0.9801498834805098,-0.009535367571516691,-0.009007374028369434,-0.009021361008567699,-0.9801498834805098,-0.009535367571516691,-0.009007374028369434
1.9510219097137451,0.007056242648391857,-1.0090986616001656,0.02396954593319187,0.016196491118727643,0.007056242648391857,-1.0090986616001656,0.02396954593319187,0.016196491118727643
1.951042890548706,0.017105618652774685,-0.9084545396492891,0.020361002277731643,0.02437865575440532,0.017105618652774685,-0.9084545396492891,0.020361002277731643,0.02437865575440532
1.9794869422912598,-0.02281914860047623,-0.793355262606274,-0.04299133038536561,-0.021546365191025794,-0.02281914860047623,-0.793355262606274,-0.04299133038536561,-0.021546365191025794
1.979517936706543,-0.018965838401297844,-0.9368753242257978,-0.019116192828677735,-0.014797828627327134,-0.018965838401297844,-0.9368753242257978,-0.019116192828677735,-0.014797828627327134
1.9801208972930908,0.013539034067992105,-1.07743022457981,0.01438172718593169,0.014839789567921927,0.013539034067992105,-1.07743022457981,0.01438172718593169,0.014839789567921927
1.9801428318023682,0.02304293280397985,-0.9174549220574765,0.0091647238157656,0.023644357993167987,0.02304293280397985,-0.9174549220574765,0.0091647238157656,0.023644357993167987
1.980849027633667,-0.01618250413852938,-0.7580810428544138,-0.038550581977197365,-0.019077730503049655,-0.01618250413852938,-0.7580810428544138,-0.038550581977197365,-0.019077730503049655
1.9808719158172607,-0.015007627720549642,-0.8650331208423298,-0.01974559010834525,-0.012685850714903826,-0.015007627720549642,-0.8650331208423298,-0.01974559010834525,-0.012685850714903826
2.0097098350524902,0.011629863628609313,-1.0458135010441867,0.015318830550292397,0.01429431229952684,0.011629863628609313,-1.0458135010441867,0.015318830550292397,0.01429431229952684
2.0097439289093018,0.022707254628807273,-0.9329101200549506,0.030361425721337692,0.026022081049689703,0.022707254628807273,-0.9329101200549506,0.030361425721337692,0.026022081049689703
2.0103249549865723,-0.017874881994590537,-8.071943089848917,-0.02703610906530657,-0.030878929029336255,-0.017874881994590537,-8.071943089848917,-0.02703610906530657,-0.030878929029336255
2.010723829269409,-0.01330126288429022,-8.163432978219179,-0.00616110022462593,-0.01668252372128011,-0.01330126288429022,-8.163432978219179,-0.00616110022462593,-0.01668252372128011
2.010746955871582,0.013560014538289497,-8.394746964057346,0.014692930015674455,0.014388720676030819,0.013560014538289497,-8.394746964057346,0.014692930015674455,0.014388720676030819
2.011715888977051,0.010629820723273566,-8.280367997795368,0.016972746080725482,0.02603956477493753,0.010629820723273566,-8.280367997795368,0.016972746080725482,0.02603956477493753
2.0118119716644287,-0.02182609918523961,-8.071229774427895,-0.028357843165616632,-0.030396391301916206,-0.02182609918523961,-8.071229774427895,-0.028357843165616632,-0.030396391301916206
2.039691925048828,-0.01653916091408221,-8.132375718932147,-0.02237856994373382,-0.009213676376542372,-0.01653916091408221,-8.132375718932147,-0.02237856994373382,-0.009213676376542372
2.0397210121154785,0.008308043717627752,-8.417859831762316,0.014497117902650208,0.022382066688783394,0.008308043717627752,-8.417859831762316,0.014497117902650208,0.022382066688783394
2.0401740074157715,0.019035771432372006,-8.310823831893211,0.02134356145781956,0.025424154475468277,0.019035771432372006,-8.310823831893211,0.02134356145781956,0.025424154475468277
2.0401928424835205,-0.023756250094919794,-8.059802716402409,-0.028959268354804762,-0.03017959871859457,-0.023756250094919794,-8.059802716402409,-0.028959268354804762,-0.03017959871859457
2.069601058959961,-0.01749724474874031,-8.137921408857304,-0.014301303919708824,-0.009115769385071684,-0.01749724474874031,-8.137921408857304,-0.014301303919708824,-0.009115769385071684
2.069628953933716,0.01947634821919727,-8.438266289855774,0.021357548438017824,0.01361246571403298,0.01947634821919727,-8.438266289855774,0.021357548438017824,0.01361246571403298
2.0700719356536865,0.03174959610767236,-8.321915209873607,0.012580952103251147,0.030815989488361218,0.03174959610767236,-8.321915209873607,0.012580952103251147,0.030815989488361218
2.0701029300689697,-0.021175721435274703,-8.02909512227075,-0.02885436787323494,-0.022347099238287732,-0.021175721435274703,-8.02909512227075,-0.02885436787323494,-0.022347099238287732
2.070560932159424,-0.0136369410594628,-8.134627562906719,-0.012329192069433854,-0.014850277933153475,-0.0136369410594628,-8.134627562906719,-0.012329192069433854,-0.014850277933153475
2.0705809593200684,0.015399253816515262,-8.449315708765493,0.00031469957479232646,0.013423645221190727,0.015399253816515262,-8.449315708765493,0.00031469957479232646,0.013423645221190727
2.0717968940734863,0.024287742253033755,-8.351867527643648,0.01881198535895125,0.01945187287376746,0.024287742253033755,-8.351867527643648,0.01881198535895125,0.01945187287376746
2.0718228816986084,-0.017588156380194734,-8.03161970487952,-0.016196489248810498,-0.024249278057488537,-0.017588156380194734,-8.03161970487952,-0.016196489248810498,-0.024249278057488537
2.099513053894043,-0.01167182269928696,-8.124361392449098,-0.00956683827696278,-0.00475194936799387,-0.01167182269928696,-8.124361392449098,-0.00956683827696278,-0.00475194936799387
2.099540948867798,0.01339217451574464,-8.41430723415773,0.01714058610327034,0.023829679871043525,0.01339217451574464,-8.41430723415773,0.01714058610327034,0.023829679871043525
2.100100040435791,0.021665252652793877,-8.339636240695768,0.023224759806722974,0.020395969728227294,0.021665252652793877,-8.339636240695768,0.023224759806722974,0.020395969728227294
2.100126028060913,-0.021245654466348872,-8.045851077638071,-0.02910612603713509,-0.02745221050670201,-0.021245654466348872,-8.045851077638071,-0.02910612603713509,-0.02745221050670201
2.1295149326324463,-0.01439921091117952,-8.05896002328447,-0.006580698411070941,-0.01310195215629927,-0.01439921091117952,-8.05896002328447,-0.006580698411070941,-0.01310195215629927
2.129546880722046,0.01683288001857714,-8.439511097434911,0.02329469283779714,0.02315133003059924,0.01683288001857714,-8.439511097434911,0.02329469283779714,0.02315133003059924
2.1298458576202393,0.02532275073894802,-8.368392701577532,0.02446956738585974,0.020955433976820644,0.02532275073894802,-8.368392701577532,0.02446956738585974,0.020955433976820644
2.129873037338257,-0.024938118133081527,-8.026269828937304,-0.03446999082946579,-0.037438646970109804,-0.024938118133081527,-8.026269828937304,-0.03446999082946579,-0.037438646970109804
2.1307148933410645,-0.007384927333465308,-8.058015928299925,-0.008587775841924425,-0.01575940733711766,-0.007384927333465308,-8.058015928299925,-0.008587775841924425,-0.01575940733711766
2.1307289600372314,0.009266125682368715,-8.428195933381094,0.008797574935146931,0.012521509307325675,0.009266125682368715,-8.428195933381094,0.008797574935146931,0.012521509307325675
2.1316020488739014,0.01755319079961621,-8.42366077659642,0.009685725738730867,0.01627691251503337,0.01755319079961621,-8.42366077659642,0.009685725738730867,0.01627691251503337
2.131621837615967,-0.0291760609381264,-7.995240543610669,-0.026735396470712505,-0.033795135864153926,-0.0291760609381264,-7.995240543610669,-0.026735396470712505,-0.033795135864153926
2.1595489978790283,-0.017630117320789517,-8.052183512760374,-0.019567261720568833,-0.01650769207855326,-0.017630117320789517,-8.052183512760374,-0.019567261720568833,-0.01650769207855326
2.1595778465270996,0.013126429371646228,-8.472694319744646,0.01728744565551781,0.013528545702760558,0.013126429371646228,-8.472694319744646,0.01728744565551781,0.013528545702760558
2.160269021987915,0.019749086853394812,-8.39981361300013,0.01565101198041542,0.019472853344064855,0.019749086853394812,-8.39981361300013,0.01565101198041542,0.019472853344064855
2.1602909564971924,-0.016308383220479453,-8.02189901356021,-0.02971454471642235,-0.029095635801986396,-0.016308383220479453,-8.02189901356021,-0.02971454471642235,-0.029095635801986396
2.1895549297332764,-0.013196362402720398,-8.046393058161415,-0.0021259630227044284,-0.011878125047459895,-0.013196362402720398,-8.046393058161415,-0.0021259630227044284,-0.011878125047459895
2.1895928382873535,0.01747626427844292,-8.476421750861874,0.02739976120087567,0.020081270153434968,0.01747626427844292,-8.476421750861874,0.02739976120087567,0.020081270153434968
2.1898269653320312,0.022595362527055456,-8.421800556847899,0.01772802431226021,0.017633614065839086,0.022595362527055456,-8.421800556847899,0.01772802431226021,0.017633614065839086
2.1898488998413086,-0.020923963271374555,-8.019528283993788,-0.020182672020038084,-0.029081650691705273,-0.020923963271374555,-8.019528283993788,-0.020182672020038084,-0.029081650691705273
2.19063401222229,-0.013133422861745361,-8.057092811915764,6.293954097504051e-05,-0.0014860755078882175,-0.013133422861745361,-8.057092811915764,6.293954097504051e-05,-0.0014860755078882175
2.190652847290039,0.016553147894280466,-8.431881403557728,0.020972915832151325,0.01875254256302578,0.016553147894280466,-8.431881403557728,0.020972915832151325,0.01875254256302578
2.1915550231933594,0.025665422404219727,-8.460183300672469,0.027231923048247956,0.030333451760941172,0.025665422404219727,-8.460183300672469,0.027231923048247956,0.030333451760941172
2.191575050354004,-0.023014960713500468,-8.037567509265873,-0.034029412172723386,-0.02852917993321106,-0.023014960713500468,-8.037567509265873,-0.034029412172723386,-0.02852917993321106
2.2196719646453857,-0.001594472734507607,-8.011888101751373,-0.014203398798155274,-0.0028917296194707134,-0.001594472734507607,-8.011888101751373,-0.014203398798155274,-0.0028917296194707134
2.2197070121765137,0.015951724575009478,-8.44587500326266,0.018672119296802913,0.016857357233924102,0.015951724575009478,-8.44587500326266,0.018672119296802913,0.016857357233924102
2.2495908737182617,0.02400801012873708,-8.457931458567815,0.018588199285530484,0.021731688938818484,0.02400801012873708,-8.457931458567815,0.018588199285530484,0.021731688938818484
2.249626874923706,-0.02942781910202655,-8.02344803047899,-0.0315607756148301,-0.02325622864225192,-0.02942781910202655,-8.02344803047899,-0.0315607756148301,-0.02325622864225192
2.249927043914795,-0.011944561333484502,-7.949738617596733,-0.007370940353267042,-0.007346465007837224,-0.011944561333484502,-7.949738617596733,-0.007370940353267042,-0.007346465007837224
2.2499518394470215,0.01049694815122436,-7.54485434537753,0.030190088953743265,0.025088474430378555,0.01049694815122436,-7.54485434537753,0.030190088953743265,0.025088474430378555
2.250591993331909,0.019958885946617315,-7.571344977174442,0.022259684351882882,0.023829679871043525,0.019958885946617315,-7.571344977174442,0.022259684351882882,0.023829679871043525
2.250633955001831,-0.019714121272816302,-7.96886530066056,-0.014322284390006218,-0.017060162837047473,-0.019714121272816302,-7.96886530066056,-0.014322284390006218,-0.017060162837047473
2.2513208389282227,-0.009860557381457717,-7.949228105908916,-0.008762607484651276,-0.009703207594061552,-0.009860557381457717,-7.949228105908916,-0.008762607484651276,-0.009703207594061552
2.251349925994873,0.011301177073618723,-7.5315740629635375,0.027483681212148104,0.020165190164707403,0.011301177073618723,-7.5315740629635375,0.027483681212148104,0.020165190164707403
2.252509832382202,0.025238830727675583,-7.5497846231333,0.009671738758532607,0.022186254575759148,0.025238830727675583,-7.5497846231333,0.009671738758532607,0.022186254575759148
2.2525389194488525,-0.018951851421099584,-7.956340294608184,-0.024875178592106483,-0.030284497330247254,-0.018951851421099584,-7.956340294608184,-0.024875178592106483,-0.030284497330247254
2.279500961303711,-0.012811731666771043,-7.904932525148489,-0.01563702500021715,-0.020004343632261667,-0.012811731666771043,-7.904932525148489,-0.01563702500021715,-0.020004343632261667
2.2795329093933105,0.015385266836317002,-7.556791913220915,0.008203145105975074,0.011164809626437098,0.015385266836317002,-7.556791913220915,0.008203145105975074,0.011164809626437098
2.280078887939453,0.020728149288433168,-7.545326392869801,0.009608799217557567,0.023074403509425943,0.020728149288433168,-7.545326392869801,0.009608799217557567,0.023074403509425943
2.2800910472869873,-0.024203822241761326,-7.968791870884436,-0.028819402292656428,-0.019619711026395172,-0.024203822241761326,-7.968791870884436,-0.028819402292656428,-0.019619711026395172
2.309504985809326,-0.009832583421061195,-7.889110176400478,-0.020462404144334756,-0.015171970998044931,-0.009832583421061195,-7.889110176400478,-0.020462404144334756,-0.015171970998044931
2.3096559047698975,0.019287529596272154,-7.524206617485403,0.01709163354249357,0.022088347584288456,0.019287529596272154,-7.524206617485403,0.01709163354249357,0.022088347584288456
2.310011863708496,0.016462234392908913,-7.58541899827568,0.017427311717666146,0.02717947187250447,0.016462234392908913,-7.58541899827568,0.017427311717666146,0.02717947187250447
2.310029983520508,-0.017979782476160357,-7.954147895299455,-0.04716283503446875,-0.021997434082916892,-0.017979782476160357,-7.954147895299455,-0.04716283503446875,-0.021997434082916892
2.3105030059814453,-0.00748982781503513,-7.889236055482429,-0.0154621933574903,-0.008178667890628112,-0.00748982781503513,-7.889236055482429,-0.0154621933574903,-0.008178667890628112
2.310520887374878,0.005650588536809361,-7.531102013601348,0.011021444949322057,0.014822305842674095,0.005650588536809361,-7.531102013601348,0.011021444949322057,0.014822305842674095
2.3114218711853027,0.021518393100546408,-7.6220709000486435,0.02216177736041219,0.024382150629537743,0.021518393100546408,-7.6220709000486435,0.02216177736041219,0.024382150629537743
2.3114359378814697,-0.0167909209478995,-7.9798622702644515,-0.03278460459358662,-0.020465900889384322,-0.0167909209478995,-7.9798622702644515,-0.03278460459358662,-0.020465900889384322
2.3394699096679688,-0.01568597943091107,-7.85660530393119,-0.012441086041102806,-0.00473796238779561,-0.01568597943091107,-7.85660530393119,-0.012441086041102806,-0.00473796238779561
2.3394999504089355,0.017322411236096312,-7.564138378228752,0.0179657954959621,0.02335413563372261,0.017322411236096312,-7.564138378228752,0.0179657954959621,0.02335413563372261
2.340082883834839,0.0201546999295587,-7.644827109108145,0.028113078491815612,0.02703960581035614,0.0201546999295587,-7.644827109108145,0.028113078491815612,0.02703960581035614
2.340096950531006,-0.018441339733283012,-7.942154379535277,-0.0330433562475859,-0.032830060409313834,-0.018441339733283012,-7.942154379535277,-0.0330433562475859,-0.032830060409313834
2.3694379329681396,-0.009755656899887895,-7.839310864785572,-0.01221729996768204,-0.01916514725937165,-0.009755656899887895,-7.839310864785572,-0.01221729996768204,-0.01916514725937165
2.369503974914551,0.010454987210629573,-7.59260112187594,0.02172119870366979,0.024682863224131806,0.010454987210629573,-7.59260112187594,0.02172119870366979,0.024682863224131806
2.3708438873291016,0.02018267202003808,-7.669639348159276,0.01859519277562961,0.020619753931730923,0.02018267202003808,-7.669639348159276,0.01859519277562961,0.020619753931730923
2.3708958625793457,-0.021847079655537,-7.966078469652741,-0.00889548192661762,-0.0236688333385978,-0.021847079655537,-7.966078469652741,-0.00889548192661762,-0.0236688333385978
2.371264934539795,-0.01399359970493277,-7.843318028027098,-0.017378357286972224,-0.013801282467040953,-0.01399359970493277,-7.843318028027098,-0.017378357286972224,-0.013801282467040953
2.37129282951355,0.01963020126154387,-7.5920486511174445,0.014993642610268521,0.005269454545909574,0.01963020126154387,-7.5920486511174445,0.014993642610268521,0.005269454545909574
2.3716280460357666,0.03074955320233661,-7.682576958907997,0.028385817126013162,0.027829849622469375,0.03074955320233661,-7.682576958907997,0.028385817126013162,0.027829849622469375
2.3716468811035156,-0.021930997796892292,-7.941594915286683,-0.02785432496789919,-0.024668876243933546,-0.021930997796892292,-7.941594915286683,-0.02785432496789919,-0.024668876243933546
2.399672031402588,-0.010846613306595202,-7.871088434853641,-0.0144271830016589,-0.008262587901900542,-0.010846613306595202,-7.871088434853641,-0.0144271830016589,-0.008262587901900542
2.3996989727020264,0.019881961295361156,-7.589034537291157,0.023658344973366243,0.015339811020589792,0.019881961295361156,-7.589034537291157,0.023658344973366243,0.015339811020589792
2.400117874145508,0.02108480793390314,-7.681828674166561,0.015133508672416852,0.014220882523403106,0.02108480793390314,-7.681828674166561,0.015133508672416852,0.014220882523403106
2.400162935256958,-0.022133803400015667,-7.98121896994534,-0.018742052327877075,-0.020263095286260947,-0.022133803400015667,-7.98121896994534,-0.018742052327877075,-0.020263095286260947
2.4295480251312256,-0.010042382514283698,-7.79603630553086,-0.011042425419619441,-0.0032413947748415536,-0.010042382514283698,-7.79603630553086,-0.011042425419619441,-0.0032413947748415536
2.4295778274536133,0.018707084877381416,-7.588593958634414,0.023252731897202356,0.028731985536334433,0.018707084877381416,-7.588593958634414,0.023252731897202356,0.028731985536334433
2.429752826690674,0.027273882118925598,-7.707235344916781,0.018175594589184597,0.027613057039147747,0.027273882118925598,-7.707235344916781,0.018175594589184597,0.027613057039147747
2.429874897003174,-0.022063870368941498,-7.967672942387249,-0.03316224183943685,-0.022291153187411827,-0.022063870368941498,-7.967672942387249,-0.03316224183943685,-0.022291153187411827
2.4305238723754883,-0.019553274740370573,-7.777825745361097,-0.013021530759993544,-0.011598392923163222,-0.019553274740370573,-7.777825745361097,-0.013021530759993544,-0.011598392923163222
2.430544853210449,0.007384927333465305,-7.57150931858202,0.025490588891575742,0.01868960302205074,0.007384927333465305,-7.57150931858202,0.025490588891575742,0.01868960302205074
2.43149995803833,0.01855323370495196,-7.758258483640528,0.023714291024242152,0.018731562092728384,0.01855323370495196,-7.758258483640528,0.023714291024242152,0.018731562092728384
2.4315218925476074,-0.020861023730399518,-7.90145335545011,-0.03472174899336594,-0.01873156209272838,-0.020861023730399518,-7.90145335545011,-0.03472174899336594,-0.01873156209272838
2.4600579738616943,-0.010811645856099549,-7.751593865218185,-0.016266422279884667,-0.0077660631942822345,-0.010811645856099549,-7.751593865218185,-0.016266422279884667,-0.0077660631942822345
2.460103988647461,0.015322327295341965,-7.616728017596527,0.012007500874459537,0.017207022389294942,0.015322327295341965,-7.616728017596527,0.012007500874459537,0.017207022389294942
2.4603240489959717,0.01571395152139045,-7.729299215285723,0.015427225906994652,0.01903926817742158,0.01571395152139045,-7.729299215285723,0.015427225906994652,0.01903926817742158
2.4603469371795654,-0.025273796308254104,-7.928818151070408,-0.044155714698279516,-0.036186845900873905,-0.025273796308254104,-7.928818151070408,-0.044155714698279516,-0.036186845900873905
2.489560842514038,-0.01200750087445954,-7.723942345853409,-0.012713824675300349,-0.008416439074330002,-0.01200750087445954,-7.723942345853409,-0.012713824675300349,-0.008416439074330002
2.489590883255005,0.017217512624443633,-7.64691810655027,0.022532422986080426,0.018654635571555087,0.017217512624443633,-7.64691810655027,0.022532422986080426,0.018654635571555087
2.4899330139160156,0.021161734455076436,-7.742747337722262,0.019958887816534456,0.03399794333719444,0.021161734455076436,-7.742747337722262,0.019958887816534456,0.03399794333719444
2.48995304107666,-0.02260235601715459,-7.948301492779705,-0.02549058889157574,-0.03855757546729649,-0.02260235601715459,-7.948301492779705,-0.02549058889157574,-0.03855757546729649
2.4906399250030518,-0.014434178361675173,-7.738467435846538,-0.016371322761454487,-0.006304463031823833,-0.014434178361675173,-7.738467435846538,-0.016371322761454487,-0.006304463031823833
2.4906668663024902,0.014699923505773581,-7.562669784576195,0.01944138263861876,0.01154244687228732,0.014699923505773581,-7.562669784576195,0.01944138263861876,0.01154244687228732
2.4917819499969482,0.014860768168302172,-7.771839478649114,0.0066226574817485895,0.022465986700055816,0.014860768168302172,-7.771839478649114,0.0066226574817485895,0.022465986700055816
2.4918110370635986,-0.024875178592106487,-7.896502097224043,-0.0463725912223555,-0.025976623364045347,-0.024875178592106487,-7.896502097224043,-0.0463725912223555,-0.025976623364045347
2.5197739601135254,-0.00409108325279741,-7.7018295210537735,-0.01307048332077032,-0.012654381879374878,-0.00409108325279741,-7.7018295210537735,-0.01307048332077032,-0.012654381879374878
2.5198378562927246,0.014657962565178794,-7.60662968716145,0.012294226488855343,0.02015120318450914,0.014657962565178794,-7.60662968716145,0.012294226488855343,0.02015120318450914
2.5204570293426514,0.018895905370223676,-7.781049658280609,0.02154636706094294,0.02487168184705692,0.018895905370223676,-7.781049658280609,0.02154636706094294,0.02487168184705692
2.5204758644104004,-0.02763054076439557,-7.925216599035131,-0.036526020821096045,-0.03234752268189378,-0.02763054076439557,-7.925216599035131,-0.036526020821096045,-0.03234752268189378
2.55014705657959,-0.0162734157699838,-7.6633663539629815,-0.015105534712020328,-0.014829299332773221,-0.0162734157699838,-7.6633663539629815,-0.015105534712020328,-0.014829299332773221
2.550175905227661,0.012846697247349553,-7.6343581330473995,0.010867593776892594,0.022053382003709942,0.012846697247349553,-7.6343581330473995,0.010867593776892594,0.022053382003709942
2.5796780586242676,0.022588369036956324,-7.835331675504444,0.017224506114542768,0.027752923101296078,0.022588369036956324,-7.835331675504444,0.017224506114542768,0.027752923101296078
2.5797479152679443,-0.014161437857560492,-7.8846694279923115,-0.015588072439440376,-0.010423518375100626,-0.014161437857560492,-7.8846694279923115,-0.015588072439440376,-0.010423518375100626
2.5799059867858887,-0.003979189281128458,-7.673912254674981,-0.008832540515725445,-0.011472513841213148,-0.003979189281128458,-7.673912254674981,-0.008832540515725445,-0.011472513841213148
2.5799288749694824,0.016616087435255507,-7.6324489626080165,0.02919004791832466,0.02299747698825264,0.016616087435255507,-7.6324489626080165,0.02919004791832466,0.02299747698825264
2.5805258750915527,0.023693310553944753,-7.839010154060895,0.01704967260189878,0.022731731844154234,0.023693310553944753,-7.839010154060895,0.01704967260189878,0.022731731844154234
2.5805459022521973,-0.019497328689494667,-7.882830190584003,-0.03388255262047592,-0.02282963696570778,-0.019497328689494667,-7.882830190584003,-0.03388255262047592,-0.02282963696570778
2.5815508365631104,-0.01474188257645123,-7.649610527311667,-0.005916333680907772,-0.01182917061676598,-0.01474188257645123,-7.649610527311667,-0.005916333680907772,-0.01182917061676598
2.581660032272339,0.014294310429609694,-7.664223034061119,0.019728108253014565,0.015668495705663244,0.014294310429609694,-7.664223034061119,0.019728108253014565,0.015668495705663244
2.582563877105713,0.022588369036956324,-7.810837632773153,0.023406584939548957,0.02940334375659674,0.022588369036956324,-7.810837632773153,0.023406584939548957,0.02940334375659674
2.582620859146118,-0.023210772826524714,-7.904470966021449,-0.011986520404162145,-0.030878929029336255,-0.023210772826524714,-7.904470966021449,-0.011986520404162145,-0.030878929029336255
2.5834269523620605,-0.007273035231713494,-7.657159797922628,0.00027273863419754324,-0.008996883793220738,-0.007273035231713494,-7.657159797922628,0.00027273863419754324,-0.008996883793220738
2.5834920406341553,0.008860514476121966,-7.65243232576998,0.009378019654037673,0.014997139355318084,0.008860514476121966,-7.65243232576998,0.009378019654037673,0.014997139355318084
2.6097209453582764,0.02372128451434128,-7.851699501520848,0.012070440415434577,0.029256484204349262,0.02372128451434128,-7.851699501520848,0.012070440415434577,0.029256484204349262
2.609771966934204,-0.016748960007304716,-7.893442527582027,-0.0211757214352747,-0.03771837909440648,-0.016748960007304716,-7.893442527582027,-0.0211757214352747,-0.03771837909440648
2.610353946685791,-0.008881494946419363,-7.630564267514064,-0.017462277298244656,-0.006178582079956618,-0.008881494946419363,-7.630564267514064,-0.017462277298244656,-0.006178582079956618
2.6103780269622803,0.012091420885731967,-7.635099424298736,0.006692590512822755,0.020430935308805815,0.012091420885731967,-7.635099424298736,0.006692590512822755,0.020430935308805815
2.639389991760254,0.023231753296822102,-7.879906990259085,0.021735185683868053,0.030892916009534522,0.023231753296822102,-7.879906990259085,0.021735185683868053,0.030892916009534522
2.6394219398498535,-0.014874755148500436,-7.8833756678523965,-0.022952021172525428,-0.017556687544665783,-0.014874755148500436,-7.8833756678523965,-0.022952021172525428,-0.017556687544665783
2.6399428844451904,-0.0029861398658918414,-7.604923320455273,-0.0033008394406841644,-1.0490235148694071e-05,-0.0029861398658918414,-7.604923320455273,-0.0033008394406841644,-1.0490235148694071e-05
2.639953851699829,0.02280516162027796,-7.669258212298459,0.02746270074185071,0.025319253993898453,0.02280516162027796,-7.669258212298459,0.02746270074185071,0.025319253993898453
2.640354871749878,0.02277718765988144,-7.9117579882333615,0.02546961029119549,0.02388562779183657,0.02277718765988144,-7.9117579882333615,0.02546961029119549,0.02388562779183657
2.6403770446777344,-0.020175678529938956,-7.856535370900114,-0.030420868517263167,-0.026627001114010257,-0.020175678529938956,-7.856535370900114,-0.030420868517263167,-0.026627001114010257
2.6415529251098633,-0.006482791419600252,-7.588475073042564,-0.005000210786844456,-0.011276699858271767,-0.006482791419600252,-7.588475073042564,-0.005000210786844456,-0.011276699858271767
2.6415770053863525,0.018231540640060502,-7.681377607144587,0.02035051204258295,0.019941404091286637,0.018231540640060502,-7.681377607144587,0.02035051204258295,0.019941404091286637
2.6695609092712402,0.02693121045365389,-7.9151077802348215,0.023392597959350694,0.02093445350652325,0.02693121045365389,-7.9151077802348215,0.023392597959350694,0.02093445350652325
2.669589042663574,-0.024336694813810532,-7.85350027660353,-0.03626027567699763,-0.02899073719033371,-0.024336694813810532,-7.85350027660353,-0.03626027567699763,-0.02899073719033371
2.6702728271484375,-0.012755785615895136,-7.5667748529392735,-0.013699880600437834,-0.019528797525023612,-0.012755785615895136,-7.5667748529392735,-0.013699880600437834,-0.019528797525023612
2.670315980911255,0.008503855830651995,-7.665502809090752,0.020238619940831138,0.016612592560123086,0.008503855830651995,-7.665502809090752,0.020238619940831138,0.016612592560123086
2.699836015701294,0.024028988729117337,-7.922038143801263,0.015119521692218595,0.019493831944445098,0.024028988729117337,-7.922038143801263,0.015119521692218595,0.019493831944445098
2.6998679637908936,-0.027959225449469022,-7.834114841885702,-0.01561604452991976,-0.02154287031589337,-0.027959225449469022,-7.834114841885702,-0.01561604452991976,-0.02154287031589337
2.700037956237793,-0.0110773928701151,-7.576138885613113,-0.006203059295303577,-0.014311794154857522,-0.0110773928701151,-7.576138885613113,-0.006203059295303577,-0.014311794154857522
2.7001919746398926,0.008958421467592658,-7.659103935812507,0.006182080694923327,0.023633867758019286,0.008958421467592658,-7.659103935812507,0.006182080694923327,0.023633867758019286
2.700502872467041,0.01965817522194039,-7.948423875116606,0.0163503422911571,0.019668665457089087,0.01965817522194039,-7.948423875116606,0.0163503422911571,0.019668665457089087
2.7005209922790527,-0.015098541221921202,-7.895788779933104,-0.04179897211205519,-0.03410284194884712,-0.015098541221921202,-7.895788779933104,-0.04179897211205519,-0.03410284194884712
2.7013919353485107,-0.003923243230252551,-7.55243158807897,-0.015874798053836178,-0.015053083536276848,-0.003923243230252551,-7.55243158807897,-0.015874798053836178,-0.015053083536276848
2.7014169692993164,0.025140923736204898,-7.7254214297411155,0.012797744686572785,0.02065472138222658,0.025140923736204898,-7.7254214297411155,0.012797744686572785,0.02065472138222658
2.7294209003448486,0.023840170106192222,-7.96598405940632,0.012224293457781175,0.026983659759480225,0.023840170106192222,-7.96598405940632,0.012224293457781175,0.026983659759480225
2.7294540405273438,-0.012420105570805418,-7.852430302537037,-0.024945111623180652,-0.028277419899393766,-0.012420105570805418,-7.852430302537037,-0.024945111623180652,-0.028277419899393766
2.7304160594940186,-0.0076296938771834655,-7.484365770243424,-0.011734762240261994,-0.012570461868102446,-0.0076296938771834655,-7.484365770243424,-0.011734762240261994,-0.012570461868102446
2.7304558753967285,0.014084511336387192,-7.650355313438137,0.009713697829210253,0.02315832352069837,0.014084511336387192,-7.650355313438137,0.009713697829210253,0.02315832352069837
2.7594358921051025,0.02683330346218319,-8.008111718073367,0.025532549832170525,0.01564751523536585,0.02683330346218319,-8.008111718073367,0.025532549832170525,0.01564751523536585
2.7594668865203857,-0.0225813755468572,-7.808449419481484,-0.038470160580891644,-0.025836757301897013,-0.0225813755468572,-7.808449419481484,-0.038470160580891644,-0.025836757301897013
2.759887933731079,-0.010937526807966762,-7.510094132188619,-0.003951215320731932,-0.006234530000749663,-0.010937526807966762,-7.510094132188619,-0.003951215320731932,-0.006234530000749663
2.7599029541015625,0.016021657606083643,-7.708756387875166,0.022749215569402053,0.0245499906520826,0.016021657606083643,-7.708756387875166,0.022749215569402053,0.0245499906520826
2.7605929374694824,0.029273966059679947,-7.965067936512257,0.025903195457838753,0.02499756279892414,0.029273966059679947,-7.965067936512257,0.025903195457838753,0.02499756279892414
2.760615825653076,-0.02200093082796646,-7.842828496809577,-0.0347357359735642,-0.024577962742561986,-0.02200093082796646,-7.842828496809577,-0.0347357359735642,-0.024577962742561986
2.7614598274230957,-0.013252308453596305,-7.472092524224866,-0.012923623768522853,-0.01602515248121607,-0.013252308453596305,-7.472092524224866,-0.012923623768522853,-0.01602515248121607
2.7614879608154297,0.01851826625445631,-7.755003100015572,0.01646922975292518,0.01875953605312491,0.01851826625445631,-7.755003100015572,0.01646922975292518,0.01875953605312491
2.789520025253296,0.026924216963554758,-8.001656898744246,0.016420275322231264,0.027018627209975884,0.026924216963554758,-8.001656898744246,0.016420275322231264,0.027018627209975884
2.7895519733428955,-0.025357716319526533,-7.807092717930678,-0.02809209802151822,-0.028487218992616272,-0.025357716319526533,-7.807092717930678,-0.02809209802151822,-0.028487218992616272
2.7902579307556152,-0.012818725156870173,-7.496261379016132,-0.009147240090517771,-0.006073683468303935,-0.012818725156870173,-7.496261379016132,-0.009147240090517771,-0.006073683468303935
2.7902798652648926,0.01988895291554315,-7.663670563302625,0.024924133022800405,0.01281522841182061,0.01988895291554315,-7.663670563302625,0.024924133022800405,0.01281522841182061
2.8197789192199707,0.01639230136183474,-8.029993761439565,0.011364118484510903,0.01760564010544256,0.01639230136183474,-8.029993761439565,0.011364118484510903,0.01760564010544256
2.8198070526123047,-0.0217701531343637,-7.807036771879801,-0.024805245561032314,-0.02573185869024433,-0.0217701531343637,-7.807036771879801,-0.024805245561032314,-0.02573185869024433
2.819988965988159,-0.007454860364539476,-7.471519072996075,-0.01220331298748378,-0.014101995061635016,-0.007454860364539476,-7.471519072996075,-0.01220331298748378,-0.014101995061635016
2.820006847381592,0.021196701905572088,-7.719854759345661,0.01939243007784199,0.018297978796002246,0.021196701905572088,-7.719854759345661,0.01939243007784199,0.018297978796002246
2.820405960083008,0.021490421010067026,-8.015650498449178,0.014357251840501878,0.023668835208514944,0.021490421010067026,-8.015650498449178,0.014357251840501878,0.023668835208514944
2.8204188346862793,-0.02132258098752217,-7.8455838589818665,-0.027364793750380017,-0.028780938097111207,-0.02132258098752217,-7.8455838589818665,-0.027364793750380017,-0.028780938097111207
2.821704864501953,-0.007189115220441064,-7.419775623491289,-0.0029371873051150625,-0.005017694512092281,-0.007189115220441064,-7.419775623491289,-0.0029371873051150625,-0.005017694512092281
2.821725845336914,0.01332224148467047,-7.744597065365718,0.011455030115965326,0.014556560698575683,0.01332224148467047,-7.744597065365718,0.011455030115965326,0.014556560698575683
2.8495500087738037,0.023581418452192943,-8.067009315348098,0.02093795025157282,0.032221643599943714,0.023581418452192943,-8.067009315348098,0.02093795025157282,0.032221643599943714
2.8495869636535645,-0.021189708415472967,-7.797973451800557,-0.03526023277166189,-0.022528924371113715,-0.021189708415472967,-7.797973451800557,-0.03526023277166189,-0.022528924371113715
2.8501739501953125,-0.003713444137030045,-7.426796900559103,-0.017721028952243936,-0.008360493023454093,-0.003713444137030045,-7.426796900559103,-0.017721028952243936,-0.008360493023454093
2.8501930236816406,0.019602229171064488,-7.744918758430609,0.026385733185258806,0.010968995643495714,0.019602229171064488,-7.744918758430609,0.026385733185258806,0.010968995643495714
2.879664897918701,0.021420487978992854,-8.092814603814466,0.020371492512880337,0.020074276663335843,0.021420487978992854,-8.092814603814466,0.020371492512880337,0.020074276663335843
2.8796980381011963,-0.014518096503030464,-7.816086106848766,-0.035518986295578314,-0.023738766369671968,-0.014518096503030464,-7.816086106848766,-0.035518986295578314,-0.023738766369671968
2.8799638748168945,-0.006608670501550327,-7.407831062157805,-0.011427056155568799,-0.006703080747971449,-0.006608670501550327,-7.407831062157805,-0.011427056155568799,-0.006703080747971449
2.879973888397217,0.012720818165399479,-7.751660301504209,0.013720861070735228,0.01463348721974898,0.012720818165399479,-7.751660301504209,0.013720861070735228,0.01463348721974898
2.8805060386657715,0.018853944429628892,-8.083590437202774,0.01865813231660465,0.014297809044576403,0.018853944429628892,-8.083590437202774,0.01865813231660465,0.014297809044576403
2.880525827407837,-0.02037149251288034,-7.81089707556908,-0.02381918963589483,-0.022766697424732744,-0.02037149251288034,-7.81089707556908,-0.02381918963589483,-0.022766697424732744
2.8815979957580566,-0.00765766596766285,-7.398257230390743,-0.018602186265728737,-0.012500528837028279,-0.00765766596766285,-7.398257230390743,-0.018602186265728737,-0.012500528837028279
2.8816299438476562,0.009965455993110396,-7.740373111410789,0.011098371470495354,0.01971062452776674,0.009965455993110396,-7.740373111410789,0.011098371470495354,0.01971062452776674
2.909646987915039,0.022448502974807986,-8.098311339308928,0.020273585521409645,0.030172607098412584,0.022448502974807986,-8.098311339308928,0.020273585521409645,0.030172607098412584
2.9096739292144775,-0.02269326764860901,-7.805232500052072,-0.035309187202355805,-0.03501197135281131,-0.02269326764860901,-7.805232500052072,-0.035309187202355805,-0.03501197135281131
2.9101009368896484,-0.006951344036739176,-7.368591638235098,-0.013860727132883562,-0.0012762764146657148,-0.006951344036739176,-7.368591638235098,-0.013860727132883562,-0.0012762764146657148
2.9101150035858154,0.014567050933724375,-7.734016199073139,0.018294480181035553,0.012808234921721479,0.014567050933724375,-7.734016199073139,0.018294480181035553,0.012808234921721479
2.9396169185638428,0.016937780500146965,-8.128459469191993,0.018133635518506958,0.022431019249560164,0.016937780500146965,-8.128459469191993,0.018133635518506958,0.022431019249560164
2.939646005630493,-0.02558849588304643,-7.801379189852894,-0.02783334636751894,-0.034382574073143796,-0.02558849588304643,-7.801379189852894,-0.02783334636751894,-0.034382574073143796
2.9398670196533203,-0.0056366015566111025,-7.350709762750407,-0.012790751196473648,-0.012339682304582551,-0.0056366015566111025,-7.350709762750407,-0.012790751196473648,-0.012339682304582551
2.9398908615112305,0.02199393733786733,-7.762576847841879,0.011559930597535146,0.023487008205771816,0.02199393733786733,-7.762576847841879,0.011559930597535146,0.023487008205771816
2.9406888484954834,0.027252901648628203,-8.155978115984722,0.02487517859210649,0.030976836020806944,0.027252901648628203,-8.155978115984722,0.02487517859210649,0.030976836020806944
2.9407129287719727,-0.021455453559571375,-7.783707113461427,-0.018483298803960657,-0.0234380537750779,-0.021455453559571375,-7.783707113461427,-0.018483298803960657,-0.0234380537750779
2.941504955291748,-0.010315121148481241,-8.229484725133771,-0.012525006052375236,-0.005122593123744964,-0.010315121148481241,-8.229484725133771,-0.012525006052375236,-0.005122593123744964
2.941520929336548,0.012105407865930227,-7.791165470571015,0.022287656442362264,0.028032655225592753,0.012105407865930227,-7.791165470571015,0.022287656442362264,0.028032655225592753
2.9696998596191406,0.02624586525319332,-8.140131291891281,0.015671992450712807,0.011038928674569879,0.02624586525319332,-8.140131291891281,0.015671992450712807,0.011038928674569879
2.9698538780212402,-0.021504406120348152,-7.740852152393159,-0.02723192117833081,-0.020486881359681713,-0.021504406120348152,-7.740852152393159,-0.02723192117833081,-0.020486881359681713
2.970088005065918,-0.00562960993642911,-7.31973642347465,0.004154022793772447,-0.0030246021915199175,-0.00562960993642911,-7.31973642347465,0.004154022793772447,-0.0030246021915199175
2.970106840133667,0.015434219397093779,-7.776024970278415,0.010482961171026102,0.01953579288503989,0.015434219397093779,-7.776024970278415,0.010482961171026102,0.01953579288503989
2.999584913253784,0.015560098479043853,-8.160803495128839,0.011510976166841231,0.028738979026433565,0.015560098479043853,-8.160803495128839,0.011510976166841231,0.028738979026433565
2.99965500831604,-0.026476644816713225,-7.76053130621548,-0.03621132311622086,-0.029249488844332993,-0.026476644816713225,-7.76053130621548,-0.03621132311622086,-0.029249488844332993
3.000035047531128,-0.004545647019820935,-7.339009967960641,-0.013874712243164685,-0.0031644682536682567,-0.004545647019820935,-7.339009967960641,-0.013874712243164685,-0.0031644682536682567
3.0000648498535156,0.017021698641502256,-7.778710397549715,0.012965584709117642,0.016088093892108257,0.017021698641502256,-7.778710397549715,0.012965584709117642,0.016088093892108257
3.000684976577759,0.0287914283322599,-8.166586956237698,0.013238323343315185,0.027724951010816696,0.0287914283322599,-8.166586956237698,0.013238323343315185,0.027724951010816696
3.000709056854248,-0.025050012104750476,-7.7782453435475425,-0.03090340624468321,-0.03301188554213981,-0.025050012104750476,-7.7782453435475425,-0.03090340624468321,-0.03301188554213981
3.0016229152679443,-0.010832626326396942,3.699464292435586,-0.001734338796655941,-0.01143404964566793,-0.010832626326396942,3.699464292435586,-0.001734338796655941,-0.01143404964566793
3.0298240184783936,0.01898681700167809,4.114796558375319,0.01784690990411115,0.022651308577931368,0.01898681700167809,4.114796558375319,0.01784690990411115,0.022651308577931368
3.0298619270324707,0.0210218683929281,3.726808107585585,0.019343475647148074,0.013049504720390074,0.0210218683929281,3.726808107585585,0.019343475647148074,0.013049504720390074
3.0301339626312256,-0.021616300092017107,4.132598012463703,-0.034616850381713256,-0.030253028494718302,-0.021616300092017107,4.132598012463703,-0.034616850381713256,-0.030253028494718302
3.030164957046509,-0.008797574935146935,3.72254918618016,-0.009902516452135359,-0.007587732936588678,-0.008797574935146935,3.72254918618016,-0.009902516452135359,-0.007587732936588678
3.0310468673706055,0.01856721881523308,4.1403151212272915,0.01807768946763105,0.022770196039699448,0.01856721881523308,4.1403151212272915,0.01807768946763105,0.022770196039699448
3.0310709476470947,0.01892387746070305,4.593540601643992,0.016455242772726916,0.02358841194229207,0.01892387746070305,4.593540601643992,0.016455242772726916,0.02358841194229207
3.0595760345458984,-0.02094494187175481,4.166641411616625,-0.04151923998775851,-0.028658555760210695,-0.02094494187175481,4.166641411616625,-0.04151923998775851,-0.028658555760210695
3.059617042541504,-0.0084269293094787,3.7473054791804157,-0.01435025835040274,0.0002097990932225062,-0.0084269293094787,3.7473054791804157,-0.01435025835040274,0.0002097990932225062
3.0600600242614746,0.015658005470514547,4.110076079712771,0.019084723993148787,0.0199449008363362,0.015658005470514547,4.110076079712771,0.019084723993148787,0.0199449008363362
3.060086965560913,0.019343475647148063,3.7287242715150675,0.011909595752905986,0.021329574477621297,0.019343475647148063,3.7287242715150675,0.011909595752905986,0.021329574477621297
3.0611228942871094,-0.02268627415850988,4.178257288265036,-0.032777611103487495,-0.02782635287741981,-0.02268627415850988,4.178257288265036,-0.032777611103487495,-0.02782635287741981
3.061147928237915,-0.013860727132883565,3.7667188878586377,-0.00486733821479525,-0.009629777817937817,-0.013860727132883565,3.7667188878586377,-0.00486733821479525,-0.009629777817937817
3.0895910263061523,0.009426972214814444,4.07519348418696,0.01920360958499973,0.009713697829210253,0.009426972214814444,4.07519348418696,0.01920360958499973,0.009713697829210253
3.0896239280700684,0.01709163167257642,3.7013175186940095,0.007902432511381008,0.015217428683689287,0.01709163167257642,3.7013175186940095,0.007902432511381008,0.015217428683689287
3.0900189876556396,-0.02056031113580545,3.290712724906923,-0.028106085001716484,-0.027196955597752294,-0.02056031113580545,3.290712724906923,-0.028106085001716484,-0.027196955597752294
3.0900440216064453,-0.008343011168123408,3.7309341564189613,-0.002888234744338287,-0.01595871619519147,-0.008343011168123408,3.7309341564189613,-0.002888234744338287,-0.01595871619519147
3.090916872024536,0.01725947169512128,4.133874288878369,0.02577731450597155,0.017679069881566294,0.01725947169512128,4.133874288878369,0.02577731450597155,0.017679069881566294
3.091063976287842,0.028707508320987472,4.58661723156765,0.009972449483209533,0.02361638403277146,0.028707508320987472,4.58661723156765,0.009972449483209533,0.02361638403277146
3.1196279525756836,-0.017084640052394434,4.178557998989712,-0.034435023378970135,-0.029127106507432485,-0.017084640052394434,4.178557998989712,-0.034435023378970135,-0.029127106507432485
3.1196579933166504,-0.010657794683670091,3.800230796723363,-0.012266252528458817,-0.009727684809408508,-0.010657794683670091,3.800230796723363,-0.012266252528458817,-0.009727684809408508
3.1199870109558105,0.013308256374389345,4.108152920423273,0.023028947693698735,0.017651097791086912,0.013308256374389345,4.108152920423273,0.023028947693698735,0.017651097791086912
3.120007038116455,0.024217809221959583,3.6726379824635016,0.01714058610327034,0.022868101161253002,0.024217809221959583,3.6726379824635016,0.01714058610327034,0.022868101161253002
3.1208908557891846,-0.02430172736331488,3.247913709889532,-0.0300432294014958,-0.03156077561483011,-0.02430172736331488,3.247913709889532,-0.0300432294014958,-0.03156077561483011
3.120910882949829,-0.00808425764420699,2.9163017705108096,-0.00956683827696278,-0.009175212180997155,-0.00808425764420699,2.9163017705108096,-0.00956683827696278,-0.009175212180997155
3.1496989727020264,0.013427141966240294,3.174718303570225,0.02364435799316798,0.0209099762911763,0.013427141966240294,3.174718303570225,0.02364435799316798,0.0209099762911763
3.1497719287872314,0.012371153010028639,3.614712452263793,0.008140205565000034,0.01442718487157604,0.012371153010028639,3.614712452263793,0.008140205565000034,0.01442718487157604
3.1500909328460693,-0.020581291606102843,3.31629422729987,-0.038141474025901054,-0.02457446599751242,-0.020581291606102843,3.31629422729987,-0.038141474025901054,-0.02457446599751242
3.150114059448242,-0.00979062435038355,2.8923217343424685,-0.009350045693641146,-0.009496905245888611,-0.00979062435038355,2.8923217343424685,-0.009350045693641146,-0.009496905245888611
3.150897979736328,0.013727854560834358,3.1784597197977345,0.015322327295341966,0.01674196838712273,0.013727854560834358,3.1784597197977345,0.015322327295341966,0.01674196838712273
3.1509268283843994,0.019175637494520344,3.6100549131422204,0.02262333648745198,0.03118313836897989,0.019175637494520344,3.6100549131422204,0.02262333648745198,0.03118313836897989
3.17964506149292,-0.025469610291195488,3.3088953111162893,-0.027637532384577557,-0.029378864671332633,-0.025469610291195488,3.3088953111162893,-0.027637532384577557,-0.029378864671332633
3.17968487739563,-0.004209968844648354,2.9293232994008855,-0.0032518850099902494,-0.007245061271316968,-0.004209968844648354,2.9293232994008855,-0.0032518850099902494,-0.007245061271316968
3.180011034011841,0.019567261720568836,3.142262383661712,0.01262291304384593,0.020308552971905303,0.019567261720568836,3.142262383661712,0.01262291304384593,0.020308552971905303
3.180034875869751,0.020224632960632864,2.71262182031217,0.019993853397112977,0.018420361132902758,0.020224632960632864,2.71262182031217,0.019993853397112977,0.018420361132902758
3.1809439659118652,-0.0236023970525732,2.3636420120117068,-0.014951681669673731,-0.025721368455095633,-0.0236023970525732,2.3636420120117068,-0.014951681669673731,-0.025721368455095633
3.1809990406036377,-0.002335763985844076,2.003364523382674,-0.018658132316604646,-0.0074408733843412105,-0.002335763985844076,2.003364523382674,-0.018658132316604646,-0.0074408733843412105
3.209656000137329,0.00272039472179343,2.2412137518161854,0.010161269976051782,0.020448419034053634,0.00272039472179343,2.2412137518161854,0.010161269976051782,0.020448419034053634
3.209696054458618,0.02062325067678049,2.660759483345617,0.017084640052394438,0.0248472065016271,0.02062325067678049,2.660759483345617,0.017084640052394438,0.0248472065016271
3.2099449634552,-0.017420318227567014,2.3725514790486057,-0.019763073833593076,-0.025385690279923052,-0.017420318227567014,2.3725514790486057,-0.019763073833593076,-0.025385690279923052
3.2099690437316895,-0.006300966286774269,2.038855535717856,-0.00685343704526848,-0.010867591906975452,-0.006300966286774269,2.038855535717856,-0.00685343704526848,-0.010867591906975452
3.211061954498291,0.01427333182922944,2.2558017832202073,0.02203589827846211,0.014224379268452669,0.01427333182922944,2.2558017832202073,0.02203589827846211,0.014224379268452669
3.2110888957977295,0.020525343685309796,2.626534259059869,0.025266804688072114,0.025301770268650627,0.020525343685309796,2.626534259059869,0.025266804688072114,0.025301770268650627
3.239668846130371,-0.02667245692973747,2.3621384509086534,-0.027819359387320677,-0.023952062207944037,-0.02667245692973747,2.3621384509086534,-0.027819359387320677,-0.023952062207944037
3.23970890045166,-0.01790285595498706,2.028295648025657,-0.007503814795233387,-0.012364159519929509,-0.01790285595498706,2.028295648025657,-0.007503814795233387,-0.012364159519929509
3.2399749755859375,0.01357400151848776,2.2100795678778997,0.01865813231660465,0.02002882084760863,0.01357400151848776,2.2100795678778997,0.01865813231660465,0.02002882084760863
3.2400059700012207,0.0257913014861698,2.599218417870266,0.02143447495919112,0.022609349507253722,0.0257913014861698,2.599218417870266,0.02143447495919112,0.022609349507253722
3.2409229278564453,-0.013594981988785155,2.3913354923170775,-0.020546324155607188,-0.0294487977024068,-0.013594981988785155,2.3913354923170775,-0.020546324155607188,-0.0294487977024068
3.2409470081329346,-0.011748749220460259,2.0622271550768265,-0.010392047669654538,-0.013622954079264536,-0.011748749220460259,2.0622271550768265,-0.010392047669654538,-0.013622954079264536
3.269758939743042,0.02739276771077654,2.1757914021812597,0.027504661682445492,0.0229450276824263,0.02739276771077654,2.1757914021812597,0.027504661682445492,0.0229450276824263
