time_s,raw_eeg1,nlms_eeg1
20.002052068710327,-16.66125500000001,-21.198336909010123
20.002052068710327,0.2206539999999961,-21.974268860094043
20.02732491493225,12.98867199999998,-39.996395773400096
20.02732491493225,18.568603,-20.81892252569536
20.027334928512573,-52.665271,-67.14437278877091
20.027334928512573,-30.54750300000001,-52.03629347419216
20.032018899917603,-14.163001000000008,-52.52409877803604
20.032018899917603,-3.635183000000012,-45.36989824110667
20.047688961029053,-70.80004600000001,-47.77785080828816
20.047688961029053,-50.552228000000014,-66.28564971297943
20.04840111732483,-25.397661000000014,-38.43302999451293
20.04840111732483,-25.334083000000007,-56.53184658876065
20.061986923217773,-71.735021,-42.54155410690431
20.061986923217773,-47.17883800000001,-43.013599894296775
20.07781291007996,2.2588989999999853,-0.2925301388836931
20.07781291007996,31.172066,13.109033233786022
20.07840609550476,-7.894929000000019,43.56601771236605
20.07840609550476,47.156398,62.51024657769193
20.09202289581299,106.026164,105.96775601173934
20.09202289581299,132.538314,106.83735466071136
20.10769009590149,89.458407,121.44013038076244
20.10769009590149,118.375313,112.93563981447318
20.10840606689453,156.140823,126.65816414028336
20.10840606689453,161.993766,112.75023921573646
20.12262797355652,89.809957,106.3940469924613
20.12262797355652,105.4203,70.6830979408521
20.123410940170288,121.95065799999998,47.10286652959053
20.13704395294189,108.337422,37.57876854371787
20.13704395294189,44.134559,13.39384536173483
20.152650117874146,40.94816399999999,-21.8138260250212
20.152650117874146,68.892697,-12.770995143821152
20.153398036956787,59.494328,-21.64438634495575
20.153398036956787,-10.217407000000009,-36.06410862306137
20.167153120040894,4.989025999999996,-50.04431853528124
20.167153120040894,22.663794,-28.935774041689207
20.199289083480835,8.972019999999986,-43.883700705204966
20.199289083480835,-58.454637000000005,-59.0988571632628
20.19981098175049,-47.41445200000001,-69.34361524131373
20.19981098175049,-26.08580200000001,-51.759395888140354
20.20053005218506,-14.686587000000015,-46.76071216467167
20.20053005218506,-72.96544800000001,-43.68324649052484
20.201219081878666,-50.574667000000005,-60.82535949848402
20.201219081878666,-23.725926000000012,-35.6320481352132
20.21202802658081,-23.12380200000001,-52.91553059284057
20.21202802658081,-83.45586800000001,-54.45700352448979
20.22703099250793,-90.06053100000001,-91.64442751263968
20.22703099250793,-70.04458600000001,-111.87217262908676
20.242713928222656,-68.16341700000001,-86.5937887748053
20.242713928222656,-104.171174,-70.63129942980788
20.243403911590576,-55.64223200000001,-64.77883372012262
20.243403911590576,-1.0172530000000108,-20.342180022625413
20.25708293914795,16.721092,-4.211185691315748
20.25708293914795,-42.85925400000001,-20.0849892359154
20.2725670337677,-23.767064000000005,-30.895677483234486
20.2725670337677,-7.199308000000002,-34.438544880259485
20.28776788711548,-9.839677000000025,-28.858302853003853
20.28776788711548,-82.83504400000001,-50.96880966486052
20.288454055786133,-68.95253600000001,-67.90452749500017
20.288454055786133,-49.28066200000001,-59.10051419669811
20.30271291732788,-50.26799600000001,-69.39424927821001
20.30271291732788,-113.65556,-71.55103227863717
20.30344295501709,-88.79270500000001,-62.524331145681714
20.30344295501709,-52.085587,-50.71538316704609
20.31714701652527,-44.39261300000001,-45.379000010057815
20.31714701652527,-101.441047,-51.7284047855674
20.33284711837769,-84.05425200000002,-37.81851094351223
20.33284711837769,-61.050127,-45.99982411364172
20.333413124084476,-58.768788000000015,-50.73560076187077
20.333413124084476,-120.349981,-54.80386632803904
20.3470470905304,-105.330543,-70.65385969976833
20.3470470905304,-77.57300500000001,-59.78778816282817
20.36283802986145,-91.25729900000002,-91.67690918829211
20.36283802986145,-144.206803,-72.10979643167589
20.36342191696167,-135.85934600000002,-86.99909825555484
20.36342191696167,-112.776683,-101.97916192939222
20.37704110145569,-119.856314,-114.23537345119848
20.37704110145569,-170.868549,-88.01068434937316
20.39281702041626,-151.15179700000002,-111.69914301690096
20.39281702041626,-121.673905,-102.27141088041196
20.393423080444336,-129.800708,-131.1433590033554
20.393423080444336,-178.32217,-115.0673317769674
20.407084941864014,-169.006079,-140.87314842913878
20.407084941864014,-143.155891,-151.312207354869
20.422729969024655,-142.022701,-165.6223406061917
20.422729969024655,-199.777976,-151.29487748426848
20.42340493202209,-189.182839,-166.49336668754538
20.42340493202209,-172.256052,-193.82267115882613
20.437117099761963,-157.17677600000002,-206.3131684959156
20.437117099761963,-203.076568,-160.82317692086534
20.45256400108337,-170.617976,-149.92417420571098
20.45256400108337,-123.211004,-138.2245792822017
20.467829942703247,-99.645895,-106.06502681157608
20.467829942703247,-132.609373,-82.83528038773176
20.46853399276733,-97.910581,-48.55588983500421
20.46853399276733,-60.95289000000001,-68.33261984717274
20.48281693458557,-55.96760300000001,-67.43426601591902
20.48281693458557,-92.143655,-58.53448861702332
20.483516931533813,-59.92815700000001,-34.8153013993288
20.483516931533813,-28.954306000000017,-47.15534564360194
20.4971981048584,-12.850296000000014,-54.26005750853459
20.4971981048584,-60.908011000000016,-48.964225355389246
20.512841939926147,-31.15710700000001,-34.292011124385795
20.512841939926147,-7.674275000000023,-51.20455913137083
20.513545989990234,-6.062378000000024,-64.26841686082844
20.513545989990234,-45.028396000000015,-49.98762545576659
20.527070999145508,-12.824117000000015,-28.497163005764207
20.527070999145508,8.601769999999988,-49.17300420757785
20.542799949646,12.951272999999986,-44.49491926885423
20.542799949646,-36.81557500000001,-41.585393888168014
20.54340100288391,-14.705287000000013,-15.62973708484887
20.54340100288391,20.412374,-19.72592177200673
20.557071924209595,33.741377,2.2939161753578112
20.557071924209595,-16.324664000000013,-10.845975297052265
20.572815895080566,8.422253999999981,7.250592876212583
20.572815895080566,40.106687,-3.320066010754843
20.573507070541385,41.606386999999984,10.083847097577372
20.573507070541385,-6.85897700000001,-22.88495059749532
20.58716607093811,9.304870999999991,9.095237850482784
20.58716607093811,36.28076899999999,-11.277119311997817
20.60299491882324,45.29766799999999,6.89119208811077
20.60299491882324,-3.601524000000012,-7.526458919220062
20.60365605354309,14.993258999999997,18.0230530092268
20.60365605354309,40.58539399999998,3.8317008549214577
20.61709308624268,40.174005,5.653320683149516
20.61709308624268,-12.11353600000001,-1.1373112506542462
20.632729053497314,-1.065872000000013,4.019508843935856
20.632729053497314,29.949119,31.31956403784424
20.63339591026306,24.03259699999998,25.217647410415857
20.63339591026306,-9.316091,30.77237378434433
20.64707398414612,4.648695000000004,28.13705178612898
20.64707398414612,29.324555000000004,17.61209790980405
20.662792921066284,31.01124999999999,9.47829430821725
20.662792921066284,-11.22344000000001,16.808609369405637
20.663522958755493,6.959953999999982,15.545101366042356
20.663522958755493,31.86768699999999,16.79102302319383
20.67713594436645,43.62219299999998,12.459605512253418
20.67713594436645,-5.400416000000007,14.57197116801462
20.69293189048767,23.460391999999985,24.20148722587382
20.69293189048767,38.090881,24.024675546092645
20.69340491294861,41.92427799999999,-1.3337946996648071
20.69340491294861,1.8886489999999867,15.286864608480712
20.70711588859558,20.935959999999994,27.10164522580203
20.70711588859558,42.384286,34.75200340013011
20.72296690940857,51.333867,40.80601549108938
20.72296690940857,10.699853999999988,51.51096393034664
20.723473072052,21.556783,52.49898736638582
20.723473072052,40.252543,49.16161840250163
20.737226009368896,50.85515899999999,37.67908743075541
20.737226009368896,11.492711999999983,45.807489939402274
20.75281596183777,30.468965,51.79196041888558
20.75281596183777,52.16786399999998,42.74194653100835
20.75342893600464,51.19548999999998,7.9948038222422255
20.75342893600464,21.668979999999976,25.51291029553451
20.76715111732483,33.57682199999999,35.041183327652945
20.76715111732483,51.45728299999999,25.159923475457298
20.78276300430298,59.625225,29.30495562037692
20.78276300430298,15.703839999999984,25.24798261398626
20.783411979675293,29.39935299999999,20.99703888822144
20.783411979675293,39.852374,-1.037395395909563
20.7970609664917,47.90437799999998,4.618734514037627
20.7970609664917,13.325262999999978,-1.361213427289778
20.81284999847412,35.472950999999995,-2.6863023236219448
20.81284999847412,69.868811,-29.738132036702936
20.81342911720276,93.288064,25.23607018346836
20.81342911720276,63.90366999999998,90.6693213721464
20.843591928482056,72.18754899999999,110.67461277586804
20.843591928482056,77.673982,100.85797031220817
20.844243049621586,67.179823,98.3946596725491
20.844243049621586,32.19305899999998,101.76995793946163
20.844962120056152,48.42422399999998,86.84768789556912
20.844962120056152,69.70799499999998,67.43285322699117
20.857197999954224,87.51365899999999,106.85796799034092
20.857197999954224,43.962524,90.64269981286446
20.872813940048218,65.751181,78.78306066491649
20.872813940048218,79.80946499999999,53.74110393818321
20.87342000007629,74.18839499999999,57.986433560387326
20.87342000007629,46.726309999999984,43.4385613412016
20.887058973312374,58.275120999999984,48.24374163667342
20.887058973312374,78.75855299999998,11.422112561431137
20.90278196334839,78.982947,12.686866188874006
20.90278196334839,55.77686799999998,38.585902376144006
20.90343189239502,68.574805,87.25402875772802
20.90343189239502,90.44574,55.904700229550805
20.91704106330872,86.38046899999998,60.521147452076605
20.91704106330872,45.970849999999984,46.97549643178349
20.932830095291138,57.30274699999998,60.91533212915128
20.932830095291138,84.001893,41.16088342087948
20.9336040019989,91.38071499999998,60.3975664072324
20.9336040019989,65.201416,54.79603861329221
20.947137117385864,86.41038799999998,76.3129711093124
20.947137117385864,103.849542,48.16645647806135
20.96272611618042,105.704532,59.57440108425003
20.96272611618042,83.900915,73.80248935462328
20.963568925857544,94.641908,63.875669290774525
20.963568925857544,117.171065,68.63353930860156
20.977091073989868,131.79407399999997,72.70045908511351
20.977091073989868,99.72443199999998,76.41313074042682
20.992751121521,119.751596,58.86202944558785
20.992751121521,147.97288099999997,55.96499306874351
20.993372917175293,156.67188899999996,54.93532317819896
20.993372917175293,139.58428599999996,47.35725192932669
21.02354502677917,163.504686,46.95060727970002
21.02354502677917,184.186333,47.15834518761386
21.024252891540527,182.264024,35.31822046040304
21.024252891540527,175.289111,41.314792665912506
21.024981021881104,184.040477,34.04052449250267
21.024981021881104,231.425009,36.33716248560279
21.037049055099487,247.876829,39.32633599961429
21.037049055099487,245.554351,55.1310331469802
21.05277991294861,295.523154,81.62063479090597
21.05277991294861,350.529603,99.9006992135948
21.05348300933838,403.677321,103.45588117180216
21.05348300933838,434.497837,134.90740804472136
21.0671489238739,482.061884,138.48639006029225
21.0671489238739,510.660899,97.93040613863091
21.08279299736023,496.217406,38.39332804305849
21.08279299736023,434.127587,-26.38209108827226
21.08346509933472,394.032119,-85.95824274895551
21.08346509933472,362.530942,-144.9973062877139
21.097054958343502,317.536206,-188.2773265606405
21.097054958343502,240.658822,-202.74685292115865
21.11285400390625,215.350919,-202.66021923105228
21.11285400390625,198.637306,-224.0866876503414
21.113553047180176,163.33639,-213.41129081164556
21.113553047180176,114.42597899999998,-165.05733550545426
21.12784695625305,102.454559,-135.0053203935047
21.12784695625305,87.62959599999999,-143.66991970596342
21.12848401069641,57.095182,-142.44335609561404
21.14201092720032,11.217829999999992,-106.0360926050564
21.14201092720032,-3.558515,-97.2661775554076
21.1577889919281,-3.2817620000000147,-94.64964502889926
21.1577889919281,-25.306033000000014,-73.71940518759186
21.15841794013977,-87.975537,-112.4001600138254
21.15841794013977,-100.881932,-103.89284210267311
21.172043085098267,-117.157976,-92.93718636393169
21.172043085098267,-139.268265,-102.3288822011004
21.1878559589386,-191.323932,-78.97420414219755
21.1878559589386,-204.518299,-92.04312699090754
21.18856406211853,-224.702539,-105.30934663090216
21.18856406211853,-266.327626,-158.150175951996
21.218669891357425,-336.230096,-169.02912318365568
21.218669891357425,-371.063524,-183.3844355233225
21.2192120552063,-381.565163,-185.825798144825
21.2192120552063,-411.140292,-192.6683278456
21.219943046569824,-519.3692570000001,-241.5243975811744
21.219943046569824,-631.03145,-318.18355048710055
21.23204588890076,-743.407964,-409.4818265442104
21.23204588890076,-843.072558,-456.7677482986893
21.24779510498047,-871.705232,-380.2303539886525
21.24779510498047,-707.605901,-113.15207189326075
21.248963117599487,-938.123985,-281.9864997310648
21.248963117599487,-766.776729,-37.430600438329975
21.26203489303589,-719.949441,33.499865039158976
21.26203489303589,-678.582408,-3.3885150972442943
21.27770709991455,-631.41479,-23.741022126736425
21.27770709991455,-620.2661479999999,-84.28288130413648
21.27841591835022,-638.0381520000001,-122.1980224381798
21.27841591835022,-651.056744,-225.6073744707295
21.308439016342163,-644.938268,-268.9525748181157
21.308439016342163,-634.264593,-328.5967915116509
21.309149980545044,-635.573558,-350.06015386678564
21.309149980545044,-609.401738,-369.6441208783157
21.309923887252808,-582.3099030000001,-406.2115997097278
21.309923887252808,-555.270426,-402.42021845699367
21.322041988372803,-565.831904,-382.95299483104606
21.322041988372803,-545.378391,-379.39428532259393
21.33777904510498,-530.2130970000001,-380.29154455127593
21.33777904510498,-524.229257,-369.1651290319156
21.33853912353516,-526.761169,-354.7531313330551
21.33853912353516,-515.743424,-346.63758347412585
21.35210609436035,-500.114382,-362.8100561350723
21.35210609436035,-499.235505,-383.5509989123457
21.36784505844116,-506.494651,-337.51480292183754
21.36784505844116,-495.450727,-328.2643302796713
21.36875891685486,-477.065378,-354.38640465344133
21.36875891685486,-459.888018,-322.32575203134024
21.39851689338684,-482.215221,-315.90639234173534
21.39851689338684,-471.376991,-389.0160132655483
21.39919400215149,-457.696437,-411.5733844302514
21.39919400215149,-463.91215,-443.5914334649521
21.399914026260376,-485.685848,-461.8316372977597
21.399914026260376,-477.944255,-482.76313369461934
21.412121057510376,-463.280107,-482.9330592571455
21.412121057510376,-468.908657,-492.9098911997814
21.427783966064453,-482.484493,-485.1275810436814
21.427783966064453,-462.483509,-496.4950453772464
21.428581953048703,-453.388072,-525.9791652557791
21.428581953048703,-450.616806,-507.6207146537967
21.442137002944943,-464.129065,-519.358868746225
21.442137002944943,-454.700777,-546.2486285927822
21.45781898498535,-434.972804,-555.2204168498567
21.45781898498535,-424.231812,-575.2393205594477
21.458508014678955,-441.158599,-576.6406092910964
21.458508014678955,-433.450665,-552.8718203180847
21.472151041030884,-420.92948,-525.3621949442311
21.472151041030884,-406.702901,-488.8805690027637
21.48781800270081,-433.129034,-462.739871538906
21.48781800270081,-431.068349,-483.7324830275834
21.488555908203125,-426.9208,-471.3246372874482
21.488555908203125,-432.123001,-463.6875582589865
21.50206303596497,-455.145825,-447.71192886126266
21.50206303596497,-442.351627,-475.5455064708572
21.51780390739441,-443.454898,-447.5709891721045
21.51780390739441,-440.283462,-426.0062405056575
21.518558979034424,-460.841692,-409.0237067340655
21.518558979034424,-445.021916,-434.7921332308516
21.53198909759521,-450.46721,-424.5555700228629
21.53198909759521,-450.489649,-404.935982455851
21.54769802093506,-468.646864,-396.5873119461817
21.54769802093506,-470.572912,-411.5106823463032
21.548423051834103,-461.432597,-394.65878511752527
21.548423051834103,-474.7803,-380.936522677073
21.57846689224243,-485.958861,-365.85371901256815
21.57846689224243,-480.274213,-361.6937954405092
21.579248905181885,-474.574605,-354.20268146401577
21.579248905181885,-481.10447,-331.16048547061416
21.579934120178223,-498.539884,-332.56029962614286
21.579934120178223,-486.34033,-334.1109040776858
21.592045068740845,-477.480507,-341.70949854056664
21.592045068740845,-472.076352,-298.1589212603938
21.60771012306213,-506.438553,-308.2118807124937
21.60771012306213,-498.521184,-287.7169747803538
21.608504056930546,-483.008079,-290.26202752174567
21.608504056930546,-489.7212,-274.0795331298499
21.622018098831177,-503.671027,-277.2601675783746
21.622018098831177,-493.610696,-274.76405782725243
21.63839292526245,-480.809018,-291.8606029479953
21.63839292526245,-478.87175,-253.47561621848732
21.638418912887573,-496.161308,-264.4587770594016
21.638418912887573,-484.907949,-266.0431466763299
21.65204095840454,-464.102885,-252.0509170251843
21.65204095840454,-471.130157,-225.1535182284656
21.667818069458008,-497.844263,-195.41671157561692
21.667818069458008,-471.492928,-161.12769299421456
21.668472051620483,-461.761708,-138.4813802774192
21.668472051620483,-455.265502,-81.06735581931656
21.698494911193848,-465.232335,-36.29083172173364
21.698494911193848,-454.068734,-10.048735319500508
21.699389934539795,-447.748303,-23.05437051307024
21.699389934539795,-448.743116,-18.437328847475328
21.699882984161377,-469.742654,-12.92181884615644
21.699882984161377,-463.145471,-41.29099678487143
21.71213698387146,-464.402077,-45.18028266951109
21.71213698387146,-466.702116,-38.34176301603992
21.72775793075561,-487.888649,-40.45996515874606
21.72775793075561,-484.174928,-42.46613582858686
21.7285749912262,-469.024594,-47.55823924502448
21.7285749912262,-470.213882,-79.55465726335524
21.74209189414978,-485.386656,-88.21844735755275
21.74209189414978,-479.028826,-136.11262639820126
21.75784802436829,-480.521046,-130.1539425175642
21.75784802436829,-477.338391,-130.36896789691787
21.758613109588623,-495.776098,-107.75021808189187
21.758613109588623,-504.703239,-88.50602133897485
21.77213191986084,-492.978653,-51.57774894155796
21.77213191986084,-500.316336,-53.781204336360815
21.787739992141724,-517.76297,-5.259474072533294
21.787739992141724,-509.763324,25.63724820000857
21.788583040237427,-479.829165,72.00134842446266
21.788583040237427,-459.356952,141.3986056126966
21.802161931991577,-466.099992,56.17912794725174
21.802161931991577,-452.969203,-139.14000256285186
21.817795991897583,-462.958476,-240.99142754089831
21.817795991897583,-475.431042,-282.6917920874644
21.81844592094421,-479.746887,-261.504472556921
21.81844592094421,-479.298099,-270.39795751887345
21.83206295967102,-468.119538,-300.4158635258375
21.83206295967102,-476.837245,-307.8954891559908
21.864126920700077,-493.513458,-303.384503578792
21.864126920700077,-488.681508,-318.97830623179334
21.8649480342865,-475.618037,-344.20536214439267
21.8649480342865,-486.819038,-323.31350201888495
21.865601062774655,-499.119568,-290.25588919696634
21.865601062774655,-485.035105,-280.61645560117813
21.8663649559021,-485.281939,-299.1377501131176
21.8663649559021,-485.330557,-278.4053826175276
21.877032995224,-492.885155,-190.18587715113057
21.877032995224,-487.922308,-108.33402099097265
21.892008066177368,-485.083724,-94.99243715818886
21.892008066177368,-488.932081,-83.68987985765006
21.907761096954346,-499.403801,-50.46230957246934
21.907761096954346,-497.365555,-72.11731988088758
21.908493041992188,-488.041985,-89.5808562599534
21.908493041992188,-492.129695,-77.46562276691941
21.92201805114746,-509.116321,-79.89884776711887
21.92201805114746,-501.950673,-99.17070616134517
21.937798976898197,-491.456513,-112.9068879355064
21.937798976898197,-497.616129,-114.79926966851303
21.93911910057068,-506.008464,-75.14653184664388
21.93911910057068,-501.879615,-57.52765574937547
21.96399211883545,-495.432027,-20.031037873337084
21.96399211883545,-491.449034,-21.914132473357427
21.97208404541016,-499.669334,26.889083233004328
21.97208404541016,-492.099776,44.26966357706124
21.97209310531616,-489.762339,101.69630111544302
21.97209310531616,-491.763185,95.19329351562236
21.98204112052917,-503.480292,94.4364247472392
21.98204112052917,-498.255652,108.7821606335504
21.997747898101807,-488.300038,132.7184255266123
21.997747898101807,-502.586456,132.98303310360802
21.99847888946533,-509.841862,195.0007303108696
21.99847888946533,-499.575836,169.45818606081838
22.01206588745117,-489.235013,203.1682760539457
22.01206588745117,-491.901562,187.87002980843383
22.04424095153809,-513.25265,188.57669224939136
22.04424095153809,-494.130542,206.06963902294055
22.045044898986816,-480.786579,205.33581548262413
22.045044898986816,-483.404509,213.54329404331676
22.0455961227417,-511.76043,232.81809095131024
22.0455961227417,-491.901562,263.11770497157045
22.04632997512817,-485.805525,247.9685186031843
22.04632997512817,-491.116183,259.3435780928259
22.057063102722168,-501.707579,264.1008653562186
22.057063102722168,-489.859576,270.7374616791992
22.07231402397156,-479.242,278.8934084744978
22.07231402397156,-485.798045,266.32368119751186
22.08862590789795,-494.908441,242.946407025827
22.08862590789795,-483.655082,226.0247458789813
22.089210987091064,-482.641569,188.1562353365133
22.089210987091064,-475.176729,190.1096706871308
22.102104902267456,-493.408741,109.5075009970571
22.102104902267456,-484.388103,58.830544868323614
22.11781406402588,-477.087818,-0.1614843228955464
22.11781406402588,-472.334405,-33.22727697662225
22.118671894073486,-495.521785,-98.36305858138051
22.118671894073486,-481.055852,-112.00092283673617
22.132771968841556,-474.092158,-149.21282469434436
22.132771968841556,-475.419822,-177.8838508426557
22.133511066436768,-5.765056000000016,260.084441447963
22.14703893661499,7.489148999999998,238.43469429342932
22.14703893661499,18.514375,185.0880515882493
22.162707090377808,5.615459999999985,185.7824740212588
22.162707090377808,-2.185972000000021,162.55902221922165
22.163836002349854,16.550927,174.53850631594173
22.163836002349854,18.764948000000004,168.45766095691278
22.17704200744629,15.851565999999991,202.6909767987252
22.17704200744629,1.602546999999987,193.5276486276992
22.19434189796448,6.154004999999984,199.47101717203256
22.19434189796448,15.60099199999999,196.63627644991075
22.19435405731201,9.901384999999976,191.272523896118
22.19435405731201,-9.654552000000024,194.5567691997743
22.20714807510376,2.885333000000003,209.2535740596279
22.20714807510376,23.709095999999988,227.6767787211159
22.222693920135494,14.785693999999978,229.99853619108285
22.222693920135494,-8.887872000000016,219.6724018454983
22.22339510917664,9.415198000000004,242.9672603433665
22.22339510917664,19.79715999999999,254.85094120751776
22.23706293106079,21.394096999999988,260.2607505407177
22.23706293106079,-1.718484000000018,251.50469843279348
22.252832889556885,9.400238000000002,253.57948798935587
22.252832889556885,14.168611,259.15601717219045
22.253474950790405,19.995375,269.1637831037557
22.253474950790405,0.742369999999994,268.5247698252203
22.267157077789307,12.223862999999994,273.1141081475059
22.267157077789307,10.630664999999992,274.8057039126704
22.282938957214355,6.93938399999999,274.97333909975816
22.282938957214355,-16.367672000000013,257.14730580837323
22.28347396850586,3.135905999999977,264.67611497619475
22.28347396850586,7.836959999999976,238.0725261594386
22.297084093093872,8.816813999999994,233.85488236121813
22.297084093093872,-10.675545,210.4599301581736
22.312899112701416,-7.070281000000023,217.987084100973
22.312899112701416,8.562500999999997,202.40969284034315
22.31345009803772,9.594712999999985,199.4035644193509
22.31345009803772,-9.475037000000016,176.83305781424932
22.32717108726501,-7.361993000000012,159.38102953501598
22.32717108726501,6.875805999999983,153.9562641525611
22.342983961105347,-1.112620000000021,138.85063611717098
22.342983961105347,-21.60727200000001,110.02694908972238
22.3436279296875,-10.402532000000008,110.53517635351476
22.3436279296875,6.176445000000001,126.38263347699362
22.357199907302856,-4.62064700000002,137.42771599954295
22.357199907302856,-22.867618000000007,119.89878053587027
22.37781810760498,-8.502663000000013,107.9468639511711
22.37781810760498,6.40831799999998,102.22246641709566
22.377832889556885,4.291534999999982,103.95035089978587
22.377832889556885,-9.557315000000017,94.27786342894224
22.386994123458862,-4.212997999999999,90.99455130368166
22.386994123458862,8.274528000000004,92.41560770820632
22.41926407814026,6.228802999999999,70.4427320919561
22.41926407814026,-15.862786000000014,63.10586995626868
22.41984796524048,-5.507002999999997,71.54785705236355
22.41984796524048,10.432450999999986,67.15586673981682
22.42066192626953,2.0363749999999925,55.79873702093083
22.42066192626953,-18.79112800000001,36.84100108150163
22.421354055404663,-0.2973220000000083,54.9357877249367
22.421354055404663,4.815120999999976,68.67118982253866
22.43219995498657,-0.2973220000000083,61.319894771494255
22.43219995498657,-10.903679000000013,69.4572162241673
22.44725489616394,-15.084887000000007,59.52855804844887
22.44725489616394,2.2495499999999997,66.72222707553335
22.462804079055783,-5.402286000000004,60.69524633594153
22.462804079055783,-27.269481000000013,52.17490154136256
22.463419914245605,-10.107079999999996,46.46401365057493
22.463419914245605,1.7110040000000026,60.2039746693786
22.477134943008423,-11.277669000000005,23.26259958446504
22.477134943008423,-22.433790000000016,34.54255550551531
22.49284601211548,-12.190204000000008,20.360375025759154
22.49284601211548,3.147125999999986,45.265048069900345
22.49350905418396,-0.4319590000000062,23.660031209111093
22.49350905418396,-14.441624000000004,22.65736540995664
22.50720906257629,0.1926049999999861,13.108279542759655
22.50720906257629,10.858798999999976,26.20694746703396
22.522752046585083,1.2173369999999863,19.75189533898336
22.522752046585083,-0.813428000000016,24.535971219599148
22.523428916931152,-1.7558830000000114,16.165766688626974
22.523428916931152,17.40362399999998,34.665154454122884
22.537265062332157,6.561653999999976,18.21094636369389
22.537265062332157,-11.846133000000007,24.996218401418574
22.552792072296143,-4.586987000000022,30.22614355200997
22.552792072296143,7.6836239999999805,28.506810442928845
22.553441047668457,-3.483717000000013,23.04048963650439
22.553441047668457,-10.249196000000012,12.631366529017653
22.56760001182556,-10.013582000000014,18.522053673993103
22.56760001182556,4.927317999999985,8.418421440903025
22.599124908447266,-4.766503,5.285613151992603
22.599124908447266,-17.313867000000016,-12.612363662348042
22.599996089935303,-5.99693000000002,-1.9198977982267955
22.599996089935303,11.060754000000005,4.047292773709856
22.60066699981689,3.064847999999984,1.5615720650586304
22.60066699981689,-15.514975000000009,-14.772048424648805
22.601437091827396,-5.103093999999999,-8.226381873076885
22.601437091827396,14.419184,8.56722680761861
22.61209607124329,-0.8096890000000201,-4.307673184208307
22.61209607124329,-12.908265000000014,-1.2084438870857
22.627245903015137,-0.5067570000000217,-1.2760105134281172
22.627245903015137,7.3993919999999775,7.920525954055439
22.64283490180969,-2.8516740000000027,-12.0333752384503
22.64283490180969,-13.592667000000006,7.908949242623123
22.64345598220825,2.3467869999999778,2.41795400334232
22.64345598220825,17.545739999999995,27.111923250745672
22.657131910324097,14.026494999999985,10.249514029822642
22.657131910324097,-5.548142000000013,20.721874854242703
22.68055510520935,2.10369399999999,-1.0558703848306958
22.68055510520935,19.06413999999998,27.10215193453104
22.6878080368042,5.813673999999992,-17.17893105155289
22.6878080368042,-5.39854600000001,13.819627312410802
22.68843507766724,5.5406619999999975,-9.144363521493428
22.68843507766724,24.049425999999983,11.979071509523417
22.702860116958615,16.595805999999982,-22.403777356966827
22.702860116958615,4.579506999999978,0.7679670923474582
22.70342206954956,5.514481999999987,-22.90204625991018
22.70342206954956,26.790773,8.451030512192954
22.717161893844604,10.484808999999984,-6.309531201853126
22.717161893844604,-2.814275000000009,19.26890165037902
22.732829093933105,4.90861799999999,5.097158114762266
22.732829093933105,13.03916099999998,23.443584905086414
22.73356294631958,-23.338846000000004,-26.534970580133336
22.73356294631958,-35.904910000000015,-10.362676388201816
22.747148990631104,-28.032420000000016,-23.7123212126045
22.747148990631104,0.3870789999999999,8.11036594622874
22.762877941131592,8.102492999999981,20.49669765825445
22.762877941131592,12.538014000000004,48.24755848677852
22.763432025909424,32.935429,69.08077826288064
22.763432025909424,40.138476,55.67940030773116
22.777159929275516,35.321485,25.132423342918315
22.777159929275516,11.311326999999975,21.205084317204893
22.79298496246338,7.728502999999989,12.741273059421244
22.79298496246338,14.273327999999992,-0.4502024506766329
22.794164896011356,8.47274299999998,-23.26721403715116
22.794164896011356,-11.397345,-30.56879057890768
22.807174921035767,2.541261999999989,-23.776169436372044
22.807174921035767,10.039761,-26.011353641356106
22.82273507118225,-2.3019090000000237,-42.47734797220858
22.82273507118225,-11.105633000000012,-39.627730706431294
22.82382202148437,-9.198284,-22.701214741861367
22.82382202148437,6.890764999999988,14.021256878399612
22.837109088897705,-3.274282999999997,58.47115467730747
22.837109088897705,-19.419431000000003,88.58837683219264
22.85280704498291,-17.089473000000012,53.67677664131283
22.85280704498291,-2.7731360000000222,31.978802992326763
22.85349702835083,3.203223999999977,17.667203940894012
22.85349702835083,-16.726703000000015,-1.8640669289052416
22.86729907989502,-10.671805000000006,-6.446835698863197
22.86729907989502,8.82429399999998,11.645362729115035
22.88287591934204,0.6189529999999763,8.62183176302895
22.88287591934204,-12.223863000000009,12.06161385884888
22.8835289478302,-6.116607000000016,5.243943251785801
22.8835289478302,5.600499999999983,6.085341545188927
22.89710998535156,-0.2262640000000146,5.119745178607349
22.89710998535156,-11.146772,2.5665503700621617
22.91274309158325,-11.659138000000013,-9.366569387651484
22.91274309158325,5.581799999999987,5.612146820952866
22.9135000705719,1.0527819999999792,12.381988149752846
22.9135000705719,-14.987649000000005,11.96757359193878
22.927205085754395,-13.214937000000006,0.6366717952898231
22.927205085754395,-5.263909000000012,-6.271358804337638
22.94286298751831,-6.685071000000022,-0.9707717465459816
22.94286298751831,-20.249689000000004,-21.67269519639442
22.943576097488403,0.3534199999999998,-0.6013582623546085
22.943576097488403,-1.580108000000024,-2.729182296288643
22.97353291511536,-9.721870000000024,-8.583857826519672
22.97353291511536,-30.018307000000007,2.482709101535363
22.97438406944275,-16.064740000000015,4.402957935983913
22.97438406944275,-3.341600999999997,2.0260892985309558
22.975044012069706,-11.337507000000016,6.177321393078273
22.975044012069706,-16.221816000000004,2.2181618638758174
22.98728609085083,-14.860493000000004,12.10977565624754
22.98728609085083,-2.096214000000004,-7.465079859438074
23.00282311439514,-15.19334400000001,-9.185661323348018
23.00282311439514,-20.829373000000004,-8.166760952338354
23.003670930862427,-13.618846000000003,14.713400794778224
23.003670930862427,1.4978299999999931,6.749006103103362
23.017153024673465,-16.423771000000016,-8.022996122873742
23.017153024673465,-28.48120800000001,-8.873592544716207
23.032958030700684,-13.413151000000012,12.6121413274153
23.032958030700684,-4.886178999999999,-1.9232879937242655
23.03362798690796,-22.819000000000017,10.331921733160035
23.03362798690796,-29.356345000000005,4.728867148001015
23.04715895652771,-22.661924000000013,-3.605312048441604
23.04715895652771,0.9106649999999944,-6.422238733985267
23.0628399848938,-13.798361000000014,-14.570309876255674
23.0628399848938,-17.160531000000006,-2.9762652269232888
23.06351900100708,-10.140738999999996,-16.612730970787403
23.06351900100708,7.64996499999998,-16.31045416809032
23.081228017807007,12.291180999999996,-22.59505780246252
23.081228017807007,3.6744520000000014,-11.680896897014662
23.092941999435425,0.8134279999999876,-35.05090218665027
23.092941999435425,8.11371299999999,-31.20178761300034
23.09352302551269,2.7357370000000003,-36.00654536372783
23.09352302551269,-16.061001000000005,-33.69701612047217
23.1072781085968,7.021661999999992,-39.37335743981193
23.1072781085968,11.423523999999986,-28.98177117191578
23.122920989990234,3.865185999999994,-17.973591129359416
23.122920989990234,-12.680131000000015,-2.154307091393491
23.12346601486206,-6.501816000000019,-10.928408720101364
23.12346601486206,-0.0130900000000053,-9.283644077056795
23.13798499107361,-4.568288000000024,-13.244079944888284
23.13798499107361,-9.811628000000011,7.197420227842713
23.138422966003414,-4.295275000000004,-8.425716825646164
23.152095079422,2.485163,-2.5223249392806624
23.152095079422,-10.52968900000002,-16.419897134166767
23.16791701316833,-30.42221600000001,-10.542280821367136
23.16791701316833,-15.761809000000014,-6.342539003508767
23.168621063232425,9.366579000000002,17.207370222831397
23.168621063232425,-7.522809000000024,7.1077768376018735
23.182188987731934,-16.790281000000007,4.389247194312944
23.182188987731934,-4.328934000000004,11.260998559669334
23.19783306121826,4.519668999999993,17.750609545536243
23.19783306121826,-8.584941000000015,9.246559100847817
23.198457956314087,-20.283348000000004,21.27937499200252
23.198457956314087,-16.031081000000015,9.222355656398555
23.212209939956665,-2.4963830000000087,25.041979921515125
23.212209939956665,-16.281655000000015,5.543681243507116
23.24428009986877,-21.86906500000001,6.929134020621618
23.24428009986877,-9.912605000000012,6.72583935691247
23.24495410919189,-4.6991840000000025,-3.947296310820201
23.24495410919189,-8.708357000000007,-3.515850696713792
23.245691061019897,-19.90187800000001,-2.889219550112429
23.245691061019897,-10.41749200000001,-0.8298346940506462
23.24650812149048,-4.4523510000000215,-8.776455630769108
23.24650812149048,-4.317715000000021,-13.48087053925346
23.25711297988892,-20.687257000000017,-1.3130598727658231
23.25711297988892,-9.763009000000013,-1.082913611671458
23.27220606803894,-6.337261000000012,-10.298441908589645
23.27220606803894,-7.126380000000012,4.296243405259991
23.287761926651,-19.359592000000006,7.389563749146237
23.287761926651,-14.677238000000017,-0.6954660180187062
23.28855991363525,4.5869869999999935,12.558927837969192
23.28855991363525,2.0700339999999926,12.439632981779877
23.30216908454895,-14.609919000000003,-5.40494850118858
23.30216908454895,-8.259568999999999,-9.15688273682849
23.31779408454895,4.059660999999977,7.201165871901903
23.31779408454895,0.6563519999999983,1.085756105305741
23.31862592697144,-7.799562000000009,3.147647074809928
23.31862592697144,-1.3482340000000193,-3.676251902958473
23.332077980041504,11.84613299999998,12.3692500617381
23.332077980041504,15.223263000000005,10.547161499187563
23.347753047943115,4.8487799999999766,13.817314298123025
23.347753047943115,8.30444799999998,3.947299185108093
23.34849190711975,15.402777999999984,10.19995255814317
23.34849190711975,8.985108999999994,4.551116583660937
23.36208701133728,3.244362999999993,18.04989850709406
23.36208701133728,14.497721999999982,14.568647786293456
23.377851963043213,25.713681999999977,18.470267663478147
23.377851963043213,14.03023399999998,5.732803112139335
23.37851905822754,6.591572999999983,26.091495402976506
23.37851905822754,0.9181449999999812,2.422384259233477
23.39208292961121,8.68591699999999,1.3979072250328173
23.39208292961121,-2.526303000000013,-0.76708637430146
23.407819032669067,-7.406872000000021,9.02341093938837
23.407819032669067,8.794375000000002,5.6111931226244245
23.40846991539001,15.907663999999984,11.604994609482349
23.40846991539001,12.05930699999999,10.802177170619691
23.42210602760315,9.205763999999988,28.500922591486376
23.42210602760315,12.380938999999984,19.500812246268406
23.4378399848938,20.668556999999996,17.822446004923513
23.4378399848938,13.936736999999994,20.59677138185955
23.43849205970764,-0.3945600000000127,8.872272992343376
23.43849205970764,17.882330999999994,13.211040249166738
23.45206594467163,19.389511,2.879335046205984
23.45206594467163,6.890764999999988,-7.888419896340583
23.46797204017639,5.794974999999994,11.702898193651686
23.46797204017639,3.6557519999999775,-1.5905654122721522
23.468653917312626,23.585679,19.37637134911225
23.468653917312626,3.120946000000004,-2.903251989491495
23.48272204399109,2.0849939999999947,11.132762448280626
23.48272204399109,10.57082699999998,11.507511471749773
23.49804091453552,12.612811999999993,-3.5216760740344637
23.49804091453552,1.6511659999999893,-13.584589690793084
23.49867010116577,-5.708956999999998,0.179390894745147
23.49867010116577,-2.7843560000000025,-11.013398921051106
23.512156009674072,6.8159670000000006,-0.8603846858557196
23.512156009674072,-3.352821000000006,-16.610514467850734
23.527868032455444,-4.306495000000012,7.084868064263702
23.527868032455444,-5.71269700000002,-8.535102556203253
23.528743982315063,5.888471999999979,-6.936809306148746
23.528743982315063,2.2121509999999773,1.098940271865473
23.54205107688904,-6.370920000000012,12.843044766166932
23.54205107688904,-4.198037999999997,-14.145152013668916
23.557966947555546,10.226755999999996,5.658728943721869
23.557966947555546,-0.5740750000000219,-6.950517096556542
23.558775901794437,-8.58868000000001,7.59652918164732
23.558775901794437,-6.273682000000008,-17.004274393147863
23.57214498519897,-0.981724000000014,-0.8278880334988266
23.57214498519897,-1.322055000000006,-6.280281340887566
23.588072061538696,-17.32508700000001,0.2625264871653883
23.588072061538696,-1.041561999999999,-8.405398355877878
23.588521003723145,4.572026999999991,-1.489018664071004
23.588521003723145,-3.584694000000013,-19.32631846124917
23.602087020874023,-15.851566000000004,-12.627103531355717
23.602087020874023,-7.4180920000000015,-21.251543206126215
23.617830991744995,0.349679999999978,-1.0937148935723968
23.617830991744995,-8.139892000000003,-14.975217559807971
23.618529081344604,-23.53332100000001,-17.79880319847837
23.618529081344604,-11.221570000000014,-17.470442111080335
23.63215208053589,2.589880999999991,-10.707994409068922
23.63215208053589,-16.610766000000012,-39.05180144569976
23.647989988327023,-26.469142000000005,-25.97738847605037
23.647989988327023,-24.453336000000007,-22.223005802122795
23.64859890937805,-8.730797000000024,-17.37336998742335
23.64859890937805,-9.392759000000012,-10.969169073905409
23.662446975708008,-22.01866100000001,-19.89506067208941
23.662446975708008,-20.03651400000001,-14.13630268365997
23.67805790901184,-5.518223000000006,-11.91085625360667
23.67805790901184,-18.41339800000001,-8.532573025692018
23.67870092391968,-21.31182000000001,1.3725853517599624
23.67870092391968,-9.172105000000016,7.992632023786694
23.692183017730716,-0.4618780000000129,0.6297624263601129
23.692183017730716,-12.13784600000001,0.3622870416463062
23.70790195465088,-21.633451000000008,-0.5816305390463867
23.70790195465088,-11.733936000000014,3.6566837731865895
23.708468914031982,5.046994999999981,1.5264986333084014
23.708468914031982,0.7498499999999808,12.070426388630128
23.72210907936096,-12.141585000000006,11.503370954217154
23.72210907936096,-5.765056000000016,12.358404406093058
23.737865924835205,4.583247,1.2983573968645177
23.737865924835205,6.161484999999999,21.396219161094955
23.73868989944458,-8.409165000000002,-8.83820237946513
23.73868989944458,-3.670712000000009,3.553541413527576
23.752150058746334,2.193450999999982,-2.832845544380266
23.752150058746334,-6.789789000000013,-2.110793028878888
23.76787805557251,-22.650704000000005,-22.92756194514753
23.76787805557251,-10.907418000000009,-18.78825185284967
23.768490076065063,14.220968999999997,-0.2329119403104158
23.768490076065063,-3.2144440000000145,5.761756794979073
23.78238606452942,-18.611612000000008,-13.122807518527878
23.78238606452942,-12.414598000000012,4.091334068719327
23.800157070159912,-19.931797000000003,-12.65364158502886
23.800157070159912,-27.95762200000001,-17.446082082035485
23.800169944763184,-35.95726800000001,-11.994775954838836
23.800169944763184,-28.56348600000001,-17.07295887116314
23.812190055847168,-14.374306000000004,3.934815297233932
23.812190055847168,5.170411000000001,5.030720586157628
23.82791805267334,6.221322999999984,39.13842608469729
23.82791805267334,17.45224299999998,56.06074592956213
23.8285551071167,20.97148899999999,41.27169022778611
23.8285551071167,11.453442999999991,21.050235096418547
23.84213089942932,-9.303001000000023,16.90157127592556
23.84213089942932,-10.615706000000015,-1.7674255027990746
23.85794305801392,4.411211999999978,-0.0121239076627368
23.85794305801392,-5.514483000000013,-20.166541087620956
23.85852789878845,-12.811028000000007,0.1144433360302876
23.85852789878845,-16.84638000000001,-25.294975489592563
23.872239112854004,0.6152129999999829,-24.520388998572862
23.872239112854004,-9.512436000000008,-36.86479357446048
23.887953996658325,-20.80693400000001,-35.95914430083634
23.887953996658325,-17.781355000000005,-29.10945938213984
23.88846492767334,-11.389866000000012,-1.796014875043685
23.88846492767334,-12.57541400000001,44.06111202588198
23.902120113372803,-14.565041000000008,64.19191797879502
23.902120113372803,-12.620293000000004,27.080156193541825
23.9179470539093,-1.307095000000004,18.682488060758462
23.9179470539093,-15.249442000000016,1.7997470340562458
23.91853404045105,-22.40387100000001,4.180952272529318
23.91853404045105,-11.21783000000002,3.87796220846564
23.93216609954834,-7.223617000000019,-1.202153405887696
23.93216609954834,-6.527996000000002,5.755322153947745
23.94800901412964,-17.867372000000003,8.463218197093461
23.94800901412964,-14.636099000000016,-1.668036637687763
23.94858694076538,-7.253535999999997,-8.578922901371186
23.94858694076538,-12.208904000000004,-6.102362509357135
23.962209939956665,-19.75976200000001,2.588883629493587
23.962209939956665,-15.918884000000006,-1.6240352854824636
23.977986097335812,-7.253535999999997,-11.102132902840449
23.977986097335812,-11.72645700000001,-7.884753349922487
23.97856903076172,-19.000562000000016,-18.77309306989128
23.97856903076172,-24.61041200000001,-25.68564251721697
23.99218511581421,-12.33232000000001,-15.32936281173656
23.99218511581421,-12.796068000000004,3.11018314330337
24.007914066314697,-23.959669000000005,-8.41930417030904
24.007914066314697,-17.39240500000001,-10.780506940793837
24.008474111557007,-6.640193000000011,1.4104218648804083
24.008474111557007,-16.59580600000001,5.529701395931177
24.02214193344116,-28.294213000000013,-2.0769725515489696
24.02214193344116,-17.960870000000014,-3.0908372397545563
24.03795409202576,-19.879438000000007,-7.255834351886477
24.03795409202576,-16.94735700000001,-1.1216546314061446
24.03857398033142,-23.34258600000001,2.9840787421959583
24.03857398033142,-17.42606400000001,1.7559284639900383
24.052117109298703,-12.167765000000015,-2.673309504118585
24.052117109298703,-19.43065000000001,0.537626231408268
24.0678551197052,-29.96594900000001,-1.897019498653929
24.0678551197052,-23.896091000000013,2.431933405675821
24.06842994689941,-9.777969000000011,7.01716178845577
24.06842994689941,-27.97632200000001,-11.887089085456855
24.082098960876465,-32.80079300000001,-7.363770510246596
24.082098960876465,-23.035914000000005,-0.453834614006503
24.098077058792114,-13.832020000000014,-6.737833386692614
24.098077058792114,-20.668557000000007,9.164399548168976
24.09850311279297,-35.762794000000014,-4.227232455410153
24.09850311279297,-20.69099700000001,6.972594733658703
24.11213493347168,-4.407472000000013,6.548076626470433
24.11213493347168,-6.984262999999999,7.979234394847928
24.127854108810425,-11.277669000000005,-2.945376558894253
24.127854108810425,-11.816214000000016,-1.926199784820902
24.12842798233032,-1.3257949999999994,-4.906078347460905
24.12842798233032,-0.7909889999999962,-3.503870924570528
24.142848014831543,-7.6761450000000195,-10.112470605188292
24.142848014831543,-5.024556000000018,-17.68096437810508
24.14376306533813,2.348657000000003,-11.658715073937028
24.15713095664978,-5.886603000000008,-10.068699070574644
24.15713095664978,-10.486680000000009,-18.86010275560461
24.172847986221317,-6.8814160000000015,-17.33518468877318
24.172847986221317,8.414774999999992,-7.161185092051802
24.173583030700684,-3.676321999999999,-3.621852974661071
24.173583030700684,-6.223194000000007,10.321588316388969
24.187153100967407,-7.936068000000006,1.1941550671432817
24.187153100967407,-1.911089000000004,-10.368525847066191
24.202811002731323,-9.75739900000002,-5.006530978009657
24.202811002731323,-14.667888000000003,4.5822057835213
24.203530073165894,-7.550858000000005,4.014135666922419
24.203530073165894,1.3800229999999942,-0.3332140284118168
24.21713805198669,-1.7016550000000166,0.7027287397206319
24.21713805198669,-14.047064000000006,-4.63619475637509
24.23282790184021,-26.26157800000001,-13.58137137212256
24.23282790184021,-11.085064000000015,8.286342852818567
24.23350501060486,-2.760046000000017,19.179845990444328
24.23350501060486,-15.053098000000006,6.855416935567778
24.2634539604187,-14.121862000000007,-8.855075080743962
24.2634539604187,2.767526000000004,5.886378843306307
24.264244079589844,-12.857776000000015,3.82886550755396
24.264244079589844,-11.687188000000006,13.169436564162575
24.264965057373047,-10.677414999999996,5.287993548321037
24.264965057373047,-5.202201000000002,5.855961649028842
24.277107000350952,-5.176022000000017,11.88300590733634
24.277107000350952,-21.09677600000001,-1.7038632757612042
24.293313026428223,-9.185194000000024,0.184090151811791
24.293313026428223,1.840030999999982,-6.136935365584094
24.293490886688232,-8.489573000000007,-1.12171755317544
24.293490886688232,-17.431674000000015,1.0726374934756606
24.31326198577881,-18.134775000000005,6.544780668524183
24.31326198577881,2.0307650000000024,10.55179748833774
24.32293701171875,-10.258546000000024,-6.297451646921601
24.32293701171875,-20.150581000000017,-7.338986701991772
24.32350993156433,-10.079031000000017,-2.4227950596816967
24.32350993156433,5.262038999999987,13.681603037670964
24.33718991279602,-10.531558000000018,-4.975950429174169
24.33718991279602,-11.40295500000002,7.225499047550738
24.35285496711731,-8.609250000000003,2.8149980855484777
24.35285496711731,3.048017999999985,0.0335991620877607
24.35348606109619,-3.919415000000015,2.99098245387024
24.35348606109619,-17.30077700000001,-1.90833400997618
24.36710000038147,-7.169387999999998,3.038096783806708
24.36710000038147,4.334543999999994,6.305557958661069
24.38305711746216,-7.943548000000021,-7.559770633761836
24.38305711746216,-14.009665000000012,1.0867632663502604
24.38350796699524,-12.177114000000005,-3.8704801062726375
24.38350796699524,1.1294499999999914,9.044819827619952
24.397150993347168,-7.562078000000014,2.463164477906666
24.397150993347168,-11.055144000000013,7.098247541032723
24.412895917892456,-10.568957000000012,-0.0440148603301828
24.412895917892456,11.99759899999998,12.462038652933089
24.41343593597412,-1.682955000000021,6.393606590811931
24.41343593597412,-5.2508200000000045,23.15259510101432
24.42713093757629,-11.361816000000005,2.0631299139070016
24.42713093757629,10.969125999999989,16.712748159057902
24.44287705421448,-5.314398000000011,-0.938902538638466
24.44287705421448,-8.871043000000014,15.655629467215697
24.44351100921631,0.6881410000000017,15.268248935041488
24.44351100921631,3.825917000000004,10.012291639385689
24.45711398124695,1.7502729999999929,3.3189969963420936
24.45711398124695,-4.712274000000008,21.22289030112088
24.47288608551025,-10.501639000000011,-7.328495237187216
24.47288608551025,10.602615999999983,3.33188790771462
24.4736750125885,-3.1789150000000177,-3.31649386766421
24.4736750125885,-6.193275,11.238655241490925
24.487154960632324,0.0897569999999916,-4.986767005605408
24.487154960632324,3.6202229999999815,-4.879374597370724
24.502865076065063,-4.540239000000014,-5.8960918765791455
24.502865076065063,-7.244186000000013,18.405375629729924
24.50348210334778,-11.687188000000006,-4.606375660081923
24.50348210334778,-0.3440710000000138,2.5989952768010625
24.51721811294556,-15.569204000000012,0.7128378177836154
24.51721811294556,-23.430473000000006,5.6274786084682376
24.532849073410038,-14.566911000000005,-5.324723826994429
24.532849073410038,0.9536739999999782,3.78990811449188
24.53353810310364,-6.735560000000021,8.075094385992042
24.53353810310364,-21.51938500000001,3.5001985706202383
24.547112941741943,-10.782132000000018,-9.270776670115389
24.547112941741943,-7.55833800000002,-3.865404076903566
24.56281805038452,-24.52626400000001,-20.06050715032366
24.56281805038452,-25.17326700000001,-7.053463041169309
24.56341910362244,-24.49260500000001,-25.095650373920165
24.56341910362244,-8.942101000000008,-12.226544921027845
24.57708501815796,-18.849096000000017,-20.03603339722003
24.57708501815796,-23.04900400000001,-9.68122442158073
24.592863082885746,-21.33612900000001,-13.268412379690368
24.592863082885746,-6.537345000000016,1.4930570808052224
24.59347605705261,-17.78696400000001,-5.075014575742557
24.59347605705261,-26.082062000000008,-0.4050290409458696
24.60724210739136,-28.41202000000001,-10.399086865359948
24.60724210739136,-19.22308600000001,-12.272036040374797
24.622817993164062,-27.065656000000004,-13.67987156302634
24.622817993164062,-31.58345500000001,-7.91962470159336
24.62348699569702,-27.74257800000001,-4.054366639187293
24.62348699569702,-9.009419000000008,-0.3803691002599407
24.63830709457397,-23.609989000000013,-3.439068868667725
24.63830709457397,-27.693959000000007,-5.176290166522481
24.652803897857662,-32.52217000000002,-16.468314914115844
24.652803897857662,-23.901701000000017,-19.10468548788746
24.65353894233704,-26.332636000000008,2.8995371765600098
24.65353894233704,-34.425779000000006,-11.607186298941198
24.667108058929443,-36.568742000000015,-11.997046037288158
24.667108058929443,-20.251558000000017,-12.649805298552929
24.68282103538513,-24.74317800000001,-1.7180433006532496
24.68282103538513,-29.63870700000001,-8.48765326453077
24.683454036712646,-29.00666400000001,-3.544548872056204
24.683454036712646,-11.290758000000013,-5.791482494300212
24.697125911712646,-28.71495200000001,-3.8985077449132426
24.697125911712646,-42.28704900000001,-28.858806059721505
24.71290111541748,-28.213805000000008,-11.953002444586184
24.71290111541748,-22.237445000000008,-14.892249957225872
24.713524103164676,-31.931266000000008,-8.327296142315674
24.713524103164676,-33.17291300000001,-0.4045806343194371
24.727143049240112,-32.058423000000005,-4.174923989339803
24.727143049240112,-10.449281000000012,3.0337372121195827
24.74286794662476,-27.37980800000001,4.24615487933978
24.74286794662476,-36.35930800000001,-5.061067799237101
24.74359893798828,-24.80301700000001,3.864003376294793
24.74359893798828,-19.417561000000006,-5.612801879269497
24.757132053375244,-37.380300000000005,-26.85873639809668
24.757132053375244,-31.886387000000013,-9.09706110067367
24.77280306816101,-30.94767200000001,-9.013717802114044
24.77280306816101,-18.692020000000014,4.496381167548986
24.773499965667725,-29.204879000000005,-16.028616738279947
24.773499965667725,-34.242524,-3.1104523904221537
24.787127017974854,-35.880600000000015,-14.03572128565638
24.787127017974854,-27.43964600000001,1.107217597422789
24.80282497406006,-27.996891000000005,5.472878809937285
24.80282497406006,-37.52241600000001,9.636735152903768
24.803524017333984,-29.88928100000001,-4.252572565604964
24.803524017333984,-12.52492500000001,16.967406236139098
24.81709599494934,-27.166633000000004,2.290977694725946
24.81709599494934,-24.63098100000001,29.61076614399508
24.832830905914307,-18.27689100000001,12.01705741708966
24.832830905914307,-1.7502730000000213,20.684147643475328
24.833585023880005,-14.551951000000017,12.056356519862575
24.833585023880005,-22.78347100000001,13.09766153148258
24.847112894058228,-17.98143900000001,-6.660813720321322
24.847112894058228,-12.824117000000015,-11.036887484702952
24.86288094520569,-18.205833000000013,-9.11216788013732
24.86288094520569,-27.92583300000001,-15.26107523721234
24.863586902618408,-14.974560000000013,-6.152110054033983
24.863586902618408,-8.938361000000015,-7.988416298833286
24.877100944519043,-13.467380000000006,-3.7973380527505256
24.877100944519043,-26.23165800000001,-6.947719693710056
24.892592906951904,-25.25928500000001,-9.31582374338912
24.892592906951904,-18.538684000000003,-7.275299944918974
24.90793299674988,-41.939238,-9.279695899085397
24.90793299674988,-55.94142400000001,-11.11341840233962
24.90856099128723,-50.64198600000002,-18.533441665742544
24.90856099128723,-37.46257800000001,-8.891268643176115
24.92284107208252,-26.923540000000017,12.374521639662191
24.92284107208252,-19.327803000000017,26.934794542563672
24.923556089401245,6.279291999999998,49.81443950744024
24.923556089401245,13.71047299999998,48.82515304925417
24.937206029891968,-5.8679030000000125,16.243062212996424
24.937206029891968,-9.301130999999998,10.89298666128374
24.952842950820923,-17.71964600000001,8.776783239445521
24.952842950820923,-14.091943000000017,9.459158970170016
24.95353889465332,-24.06625600000001,-11.12459954147953
24.95353889465332,-30.30067000000001,-21.11561459120784
24.967204093933105,-21.339869000000007,-25.47361367275492
24.967204093933105,-16.24238600000001,-23.64098967884357
24.983248949050903,-19.96732600000001,-39.06197970649551
24.983248949050903,-16.975406000000007,-29.13187634541376
24.983607053756717,-16.507919000000015,-33.375450192086966
24.983607053756717,-4.46918100000002,1.1232979638272766
24.99717712402344,-18.35542900000001,16.200250430328893
24.99717712402344,-23.961539000000016,63.601260207021184
25.01298499107361,-16.257345000000015,43.96874998336319
25.01298499107361,-4.319585000000018,35.36566798391792
25.01356601715088,-18.87901500000001,0.9236778189380744
25.01356601715088,-25.580916000000016,6.79971493005543
25.027188062667847,-19.75789200000001,-14.572136730188276
25.027188062667847,-4.558938000000012,17.03017310433647
25.042937994003296,-8.339977000000005,-0.2005967557265826
25.042937994003296,-24.690820000000016,-1.1434657082385191
25.043529987335205,-11.541331000000014,1.7208146676681082
25.043529987335205,0.6507419999999797,15.942329043668572
25.057183027267456,-13.00363200000001,-8.370278727296707
25.057183027267456,-19.780331000000004,0.2224934807562775
25.07289409637451,-1.7166140000000212,9.88962138976806
25.07289409637451,1.7278340000000014,15.50244832498332
25.07358407974243,-15.206433000000004,-0.8097174024193166
25.07358407974243,-15.980593000000011,2.266654563448199
25.08728790283203,-11.638569000000004,6.998490797626921
25.08728790283203,-0.4413080000000207,1.609822222344654
25.10298204421997,-11.01774500000002,-3.4795592430363094
25.10298204421997,-22.48801900000001,-4.928671338932546
25.103591918945312,-23.381855000000016,-5.980569653282981
25.103591918945312,-7.74907300000001,-0.764655173578177
25.11724090576172,-21.066857000000013,-10.697707928474983
25.11724090576172,-24.589842000000004,-5.496301945095748
25.13291311264038,-30.723278000000008,-16.464854179940275
25.13291311264038,-12.01255900000001,5.533409422930951
25.133686065673828,-16.481739000000005,-6.900982371636651
25.133686065673828,-27.017037000000016,-3.950672827376451
25.1480131149292,-22.435660000000013,-7.310063814238887
25.1480131149292,-14.540731000000008,3.4901874327269056
25.14855408668518,-25.242455000000007,-8.180948857650918
25.16226601600647,-37.071759000000014,6.64671142948518
25.16226601600647,-24.45707600000001,-1.6146557041485643
25.177618980407715,-14.030235000000005,6.209621931490528
25.177618980407715,-22.123378000000017,-2.297132379708316
25.192852020263672,-27.018907000000013,8.923664651497766
25.192852020263672,-23.64551800000001,4.298339919425381
25.193933963775635,-13.218677000000014,1.8789789929426668
25.193933963775635,-17.826233000000016,0.8561392691578007
25.207905054092407,-26.962809000000007,5.08522666889359
25.207905054092407,-17.321347000000017,9.589156846747052
25.20861291885376,-3.397699000000017,9.029694858676788
25.20861291885376,-18.877145000000013,-2.657586827911814
25.222145080566406,-16.38637200000001,-1.6787821401945706
25.222145080566406,-1.621247000000011,8.828778218677257
25.237875938415527,7.406871999999993,-3.3126226655631257
25.237875938415527,1.3444939999999974,-0.4342648377885076
25.23853802680969,-8.143631999999997,-10.582448728607986
25.23853802680969,-4.818860999999998,-10.106117644142884
25.252150058746334,5.024554999999992,-18.512740977646523
25.252150058746334,-4.777722000000011,-19.06607665843084
25.284204959869385,-6.834666999999996,-18.385375121433302
25.284204959869385,-3.9138060000000223,-14.607284812383533
25.284995079040527,6.614013,-11.902023027559366
25.284995079040527,-6.2512430000000165,-10.99420610319217
25.28570508956909,-6.023109000000005,3.1476948684476938
25.28570508956909,-5.514483000000013,-2.7644689206144903
25.286431074142456,10.709203000000002,3.946659500104365
25.286431074142456,5.320007000000004,6.0979254595142045
25.29716396331787,-7.141339000000016,6.682104201458152
25.29716396331787,-9.852767,-8.408958898251356
25.312100887298584,8.18103099999999,3.793337831827927
25.312100887298584,-0.6376530000000002,14.259268592530606
25.32786512374878,0.8321279999999831,19.85391123402437
25.32786512374878,-1.8419010000000071,9.24058235962704
25.328574895858765,12.223862999999994,12.811146761251862
25.328574895858765,0.2150439999999776,10.96091292299552
25.34219694137573,-11.296368,0.715014030487346
25.34219694137573,-0.1888650000000211,1.9267191045079797
25.374265909194943,10.159437999999994,6.86233691748077
25.374265909194943,-5.282609000000008,6.987588189075062
25.374911069869995,-0.0916280000000142,14.974402615945223
25.374911069869995,-9.961224000000016,-8.407460206911278
25.37590003013611,4.994635999999986,-4.416742252969987
25.37590003013611,-2.627280000000013,2.49787775924772
25.3764591217041,-8.55502100000001,-0.9547969991131672
25.3764591217041,-1.3370140000000106,5.116978783852126
25.387211084365845,2.892811999999992,0.3880384141744155
25.387211084365845,0.3347210000000018,3.9264001489670495
25.402136087417603,-8.906572000000011,4.10589634146398
25.402136087417603,0.7535900000000026,-1.813403575145239
25.418055057525635,8.596159999999998,1.0902536035280157
25.418055057525635,-0.8882260000000031,6.937372259633731
25.418617963790894,-2.0700350000000185,10.793390136163536
25.418617963790894,0.3571599999999932,11.229853109812469
25.432279109954838,5.275128999999993,2.674456056761217
25.432279109954838,-7.283455000000004,3.399482324550931
25.46425700187683,-8.629818999999998,5.836967015729119
25.46425700187683,-4.299014999999997,1.977331967799817
25.464914083480835,13.319652999999988,20.29364119745824
25.464914083480835,-3.143386000000021,5.428922248744163
25.465744018554688,-7.986557000000005,10.38880231181885
25.465744018554688,3.603392999999983,22.12213293721744
25.46646189689636,9.134704999999997,7.0481789874249134
25.46646189689636,-4.557068000000015,3.102307951737922
25.477104902267456,-8.06135500000002,-9.135916861820323
25.477104902267456,1.3893729999999778,3.790953666946322
25.492074012756348,5.746355999999992,-11.221747202358642
25.492074012756348,3.891365999999977,-2.426601128180387
25.507838010787964,5.570580999999976,12.472380912894508
25.507838010787964,5.334966999999978,4.106515564217013
25.508588075637817,19.621385000000004,18.72110418424732
25.508588075637817,9.033727999999996,20.634422250194252
25.52221989631653,-3.042409000000021,10.520503347215351
25.52221989631653,9.628371999999985,6.062955975162588
25.5378839969635,9.82658699999999,-2.1579078804413
25.5378839969635,-8.513882000000024,-12.867321264910878
25.538557052612305,-6.090427000000005,2.7873383390700326
25.538557052612305,-3.184525000000008,2.574267732112773
25.55217409133911,7.354512999999997,-3.9958985782978047
25.55217409133911,-2.503863000000024,-1.1154194984956796
25.56797695159912,-5.71269700000002,0.1422248613150394
25.56797695159912,-1.639946000000009,-5.100475312437943
25.568663120269772,8.43908399999998,-6.575495140687682
25.568663120269772,-5.768796000000009,-10.778301685187577
25.58214902877808,-10.604487000000006,-10.255330993952745
25.58214902877808,2.2383299999999906,4.973724625261632
25.59791898727417,8.431603999999993,-1.1172872756875272
25.59791898727417,-0.8059489999999983,0.4005081579948228
25.598588943481445,-7.466710000000006,-8.776693934179406
25.598588943481445,-5.420985000000002,-2.5588122153681
25.61211895942688,4.777721999999983,-7.190698883462819
25.61211895942688,-4.553328000000022,7.764801824780189
25.627795934677124,-13.125179000000015,-7.147002963270204
25.627795934677124,-10.331474000000014,-1.5488354052000588
25.628509044647217,-1.7783230000000003,-4.283851032128805
25.628509044647217,-2.997530000000012,2.0693280681595727
25.642204999923703,-9.15340500000002,3.0621723961685365
25.642204999923703,-2.6497190000000046,5.288033049506922
25.657879114151,6.670110999999992,2.3319526634590897
25.657879114151,-5.009596000000016,-3.610682476410602
25.6585750579834,-8.573721000000006,-6.921321629454106
25.6585750579834,10.107079,16.499047751341607
25.672184944152832,7.85566,-11.223962012365234
25.672184944152832,3.3042009999999777,1.7715096959484598
25.68799090385437,-7.0216620000000205,-14.732597390820064
25.68799090385437,5.189110999999997,9.771825924997804
25.688682079315186,9.923823999999996,-4.513662850806426
25.688682079315186,1.247255999999993,1.7177259461951024
25.70225191116333,-6.075468000000001,-7.284216680490873
25.70225191116333,-6.53547500000002,-0.8712614473750797
25.717814922332764,16.981015999999983,5.71489533185321
25.717814922332764,-6.737430000000018,1.984804619495801
25.718749046325684,-6.023109000000005,-1.490909394070446
25.718749046325684,3.5024159999999824,12.44812398289889
25.732197999954224,8.992588999999981,-5.3652947692644375
25.732197999954224,4.149418999999995,7.507005661482113
25.74784803390503,-14.490243000000008,-9.71482848178135
25.74784803390503,-3.5697350000000085,-5.115461002283315
25.74853610992432,12.29866099999998,-1.31808878555524
25.74853610992432,5.652858999999978,9.771439089559305
25.762197971343998,-4.530889000000002,3.2529710222372934
25.762197971343998,-8.31940800000001,-4.866583926165637
25.77798199653625,8.136151999999981,11.99845635696591
25.77798199653625,1.9503579999999945,7.125902084898945
25.77858304977417,2.10369399999999,9.66025493914667
25.77858304977417,2.773135999999994,2.5091868710762206
25.792251110076904,8.278267999999997,4.657385072941888
25.792251110076904,-3.4612780000000214,-3.45052341543024
25.80785608291626,-4.093321000000003,-1.5834945177363409
25.80785608291626,7.433050999999978,6.133675935665945
25.809031009674072,10.892457999999976,-3.991761945057833
25.809031009674072,6.404577999999987,14.101442728656725
25.822211980819706,-4.429912000000002,5.445032089909578
25.822211980819706,-1.7970219999999983,13.511406261098596
25.837841987609863,8.11371299999999,-6.455659760844702
25.837841987609863,5.802454999999981,7.675223813820942
25.838541984558105,-9.819108,-11.37746397434426
25.838541984558105,-9.486255999999996,-1.8724664094058632
25.85239601135254,5.974490000000003,-17.17020445406133
25.85239601135254,-7.7172840000000065,-4.803559761666346
25.868011951446533,-8.955191000000013,-23.351457249530046
25.868011951446533,0.7087109999999939,-4.592512676816712
25.868834972381592,9.96122299999999,-12.827155980031415
25.868834972381592,-6.086687000000012,5.718713341960669
25.88216805458069,-12.489396000000012,-1.5217565097096344
25.88216805458069,-8.166072000000014,3.887089063358129
25.89793300628662,-15.200824000000011,-22.923738482785502
25.89793300628662,-32.89429000000001,-18.695767012096454
25.898669004440308,-42.06826500000001,-30.9009229126744
25.898669004440308,-20.780754000000016,-12.917529548800998
25.912211894989014,0.6264329999999916,1.321334815154767
25.912211894989014,17.990788999999978,31.903201322420045
25.927908897399902,17.06703299999998,36.212653328214095
25.927908897399902,18.177784000000003,24.35713570699813
25.92866611480713,22.725501999999977,10.456266964703277
25.92866611480713,1.5950670000000002,-4.968936065605573
25.942317962646484,-0.6226940000000241,6.345799345762474
25.942317962646484,-3.659492,-8.931486010246068
25.95922803878784,9.632111999999978,-24.540502651111822
25.95922803878784,-4.990897000000018,-27.34079059809659
25.959369897842407,-11.139292000000012,-19.6688637886138
25.959369897842407,1.9914969999999808,-15.748402312928569
25.97231411933899,-0.4506580000000042,-45.65038970298399
25.97231411933899,-4.351374000000021,-35.882754974710394
25.987828969955444,-15.743109000000004,-22.78567652854598
25.987828969955444,-10.705464000000006,0.8312154069268054
25.98863410949707,-2.458984000000015,16.137089829058695
25.98863410949707,-10.110820000000018,50.66093754804514
26.01857900619507,-9.72935000000001,39.55386501983422
26.01857900619507,-8.151112000000012,21.099688565292627
26.019362926483154,-4.231696999999997,7.687543388423249
26.019362926483154,-8.790635000000009,6.984278187799401
26.020018100738525,-17.437284000000005,-5.570573295178985
26.020018100738525,-14.961470000000006,-9.661432014336974
26.032155990600582,-1.9765370000000075,-7.809963728658417
26.032155990600582,-16.221816000000004,-11.149522553459148
26.04788088798523,-23.649258000000003,-11.71212906741146
26.04788088798523,-6.0118889999999965,3.8094346984405263
26.04858899116516,-5.630420000000015,-7.169289941086731
26.04858899116516,-10.944817,-0.4103091018111424
26.062143087387085,-21.86906500000001,-4.241280047423544
26.062143087387085,-8.480223000000024,7.082425557963042
26.077959060668945,-2.215890999999999,1.180636643530029
26.077959060668945,-15.309281000000013,-7.32291239124693
26.078577041625977,-20.788234000000017,-2.5125108262321554
26.078577041625977,-5.4845630000000085,1.7881455970761593
26.092195987701416,2.855412999999998,-2.436286319626461
26.092195987701416,-13.727303000000006,-6.500681530915815
26.107882976531982,-14.927811000000004,-1.3692074697055752
26.107882976531982,-12.122886000000008,3.4908313163725886
26.108645915985107,2.298168000000004,-0.9362666805036284
26.108645915985107,-7.339554000000021,-4.047012155137136
26.122212886810303,-15.930104000000014,-2.5892293566156823
26.122212886810303,-6.976784000000009,-0.1501467402178775
26.138783931732178,-3.255583000000001,-11.83006602823217
26.138783931732178,-1.7783230000000003,4.954613500895459
26.13879704475403,-14.351866000000015,-7.502647553345849
26.13879704475403,-7.780862000000013,-6.284574308292395
26.152843952178955,-5.099354000000005,-10.883397608454974
26.152843952178955,-8.495182999999997,5.424487411431318
26.153573989868164,-19.71675300000001,-12.448887262456132
26.16735410690308,-14.316337000000004,-9.105526708946073
26.16735410690308,-1.821331000000015,-12.136780129577708
26.18306589126587,-29.717245000000005,-10.44735583985358
26.18306589126587,-21.691420000000008,-5.8588585132316044
26.18357491493225,6.339129999999983,21.532885331522643
26.18357491493225,14.492111999999992,9.044811031396916
26.1973090171814,-6.810358000000008,9.309141444014962
26.1973090171814,-4.663655000000006,3.4574779465349827
26.2129819393158,1.6754749999999774,16.580169626392458
26.2129819393158,19.91496699999999,14.921328547713124
26.21359896659851,17.072643,24.04010977960028
26.21359896659851,3.556645000000003,-8.30796960558936
26.22720408439636,10.333342999999983,2.2187325877793462
26.22720408439636,28.539176,1.7381597259222057
26.24303698539734,11.810603999999984,-0.3969299878476082
26.24303698539734,6.440107999999981,-20.294423247288687
26.24375295639038,14.436014,-11.012183811989466
26.24375295639038,27.428426,-2.60371021723546
26.266037940979004,11.754504999999996,-8.48278911047898
26.266037940979004,13.463639999999998,-2.641349361673303
26.27278709411621,19.526017,2.5291008568050017
26.27278709411621,27.36858799999999,2.365529268360895
26.27375102043152,11.919061,-1.854646739947356
26.27375102043152,9.237552999999991,9.469073699344456
26.287211894989014,19.234304999999974,12.02578441170594
26.287211894989014,26.317675999999977,6.945837293315872
26.302834033966064,18.759337999999985,13.685466713982606
26.302834033966064,22.028010999999992,19.5968795287005
26.30359411239624,35.15879899999999,33.769019148131406
26.30359411239624,61.64851099999999,45.06295840506351
26.31717300415039,47.80340099999998,46.81956951598436
26.31717300415039,44.57586699999999,51.89270024326791
26.332858085632324,43.898945,42.66839705902939
26.332858085632324,61.46525599999998,47.60636237579007
26.33358597755432,46.57671399999998,43.02076431671451
26.33358597755432,43.35665999999998,48.377026544694
26.347214937210083,51.77517499999999,35.40565713685291
26.347214937210083,63.91862999999998,39.66540570683686
26.36280608177185,40.319861,23.00609972071396
26.36280608177185,35.53278899999998,27.63527104793045
26.363559007644653,34.02561,20.75487302570209
26.363559007644653,41.03792199999998,23.339520384252857
26.377134084701535,36.96891099999999,26.55764885763229
26.377134084701535,33.62917999999999,18.519874296156296
26.392836093902588,27.600461,6.056228257995365
26.392836093902588,36.176052,6.157451450691706
26.393563985824585,27.342407999999978,7.846604018908508
26.393563985824585,17.121262,0.4005358509564019
26.407138109207157,15.277490999999998,-8.586041640411203
26.407138109207157,26.53458999999998,-9.913224773169162
26.42283511161804,19.017391000000003,-0.369884763741453
26.42283511161804,8.280137999999994,-16.56179125640139
26.42357301712036,25.887587,3.506166683619547
26.42357301712036,33.071935,-15.316112833160853
26.437285900115967,14.64918799999998,-1.1194851989901995
26.437285900115967,11.668487999999996,-14.34853969624066
26.45288991928101,13.201846999999988,-7.572727763105458
26.45288991928101,34.784809,-6.724648529501593
26.453601121902462,21.938253000000003,-1.5184870337210263
26.453601121902462,13.119568999999984,-13.837537289785772
26.473737001419067,24.343008999999995,2.14993127031007
26.473737001419067,32.33517499999999,1.7352489525614665
26.48280692100525,16.627594999999985,4.69260156733524
26.48280692100525,15.954412999999988,-7.938443859972999
26.48354411125183,26.123200999999995,9.975881734394015
26.48354411125183,39.044555,5.691558030518216
26.49716305732727,15.90953399999998,1.2342532482796535
26.49716305732727,8.276398,-20.75264051447248
26.512800931930546,18.819176,-0.6176975462343357
26.512800931930546,35.09148099999999,-3.406486027564675
26.5135760307312,22.832089,-0.7668597130697314
26.5135760307312,12.45012699999998,-9.940373704070186
26.52721405029297,25.322861999999983,0.603223142684115
26.52721405029297,31.258084,-2.9549477099111527
26.54283690452576,19.907487000000003,-0.5220024221495159
26.54283690452576,15.32611,-0.3176440439931465
26.54353404045105,16.313442999999978,2.022775204928079
26.54353404045105,38.73040399999999,10.487496001577334
26.573543071746823,14.866101999999984,-4.824614648802136
26.573543071746823,6.350349999999992,-10.438520816589278
26.574249982833862,16.74727199999998,-6.045147737789485
26.574249982833862,36.344348,7.276831061942772
26.57501792907715,21.556783,-2.733780769020079
26.57501792907715,6.630842000000001,-6.354611008420314
26.58734893798828,19.41755999999998,0.3338193602325532
26.58734893798828,35.89555999999999,13.572471931364746
26.60298800468445,24.50382399999998,3.961263503556733
26.60298800468445,16.952966000000004,2.607716974913803
26.603704929351807,5.51261199999999,-14.953473148259809
26.603704929351807,30.24457099999998,-0.8474924505273087
26.61738610267639,21.740038,10.49628604195528
26.61738610267639,14.944639999999993,6.901786817786906
26.63295602798462,20.057082999999977,6.704097216387595
26.63295602798462,30.936452000000003,11.350549687430394
26.633744955062863,21.08929599999999,16.60053925564452
26.633744955062863,12.266871999999978,5.113542398270942
26.64722204208374,14.637968,3.960414398860912
26.64722204208374,27.559322999999974,6.723491271083663
26.66301798820496,11.159860999999978,7.630782827545025
26.66301798820496,1.6904349999999797,-6.345749615426314
26.66373896598816,0.5796839999999861,-7.891398602315711
26.66373896598816,23.082662,2.4225414872543567
26.677330017089844,11.724585999999988,13.997417805839625
26.677330017089844,2.550612000000001,-1.4759804780308734
26.69292402267456,6.492465999999979,-5.629743681337509
26.69292402267456,31.774189999999976,14.467948741731732
26.693569898605347,13.003631999999982,16.491486212947173
26.693569898605347,-3.12655700000002,2.654368613701309
26.707283973693848,13.841369999999984,12.37066612984104
26.707283973693848,24.724477999999976,11.29082812504787
26.72298693656921,17.831842999999992,14.669696293609556
26.72298693656921,-0.0972380000000043,-4.980731772771391
26.72383689880371,-1.1331900000000132,-10.089082278865073
26.72383689880371,10.546517999999992,-3.113218993527507
26.737396955490112,-1.159368999999998,-10.803834390494504
26.737396955490112,-5.9801000000000215,-4.981605833283796
26.76939105987549,10.669933999999984,14.025602671999447
26.76939105987549,20.797583000000003,13.428715911662334
26.769958972930908,1.8325509999999952,5.791812277542853
26.769958972930908,-3.642662999999999,0.5626334891176006
26.77076292037964,-4.607557000000014,-1.8999239150187872
26.77076292037964,12.506225,0.9200714186849144
26.77197909355164,0.7218000000000018,2.4140770118714228
26.77197909355164,-10.037892,10.565175385874888
26.78224205970764,-4.2560060000000135,8.63289544135494
26.78224205970764,20.371234999999984,19.73583351434342
26.797280073165894,3.268671999999981,11.387630311997732
26.797280073165894,-2.2775990000000093,19.386316961694597
26.812840938568115,9.604062999999996,17.11045522583275
26.812840938568115,20.614328,19.628751942788053
26.81365299224853,9.11039599999998,18.733062061196875
26.81365299224853,-6.799137999999999,4.888805413923322
26.827359914779663,-8.541932000000003,-1.875847403461858
26.827359914779663,13.381361999999996,9.51078344140438
26.85987401008606,8.598029999999994,14.178973855872412
26.85987401008606,-3.687542000000008,1.48245674020953
26.859888076782227,5.093743999999987,1.8021433024578908
26.859888076782227,17.214758999999987,7.466285947320799
26.860811948776245,-5.284479000000005,-8.219792865448289
26.860811948776245,-4.570158000000021,-17.017395493517533
26.861411094665527,-0.2094350000000133,-10.499305163578663
26.861411094665527,8.893481999999977,-15.568347383754158
26.87219500541687,-7.468580000000003,-10.035741851495551
26.87219500541687,-22.82835000000001,-23.65219144418821
26.887151956558228,-21.60914200000001,-10.469634622009794
26.887151956558228,-21.27629100000001,-31.791288148826997
26.90288710594177,-23.54641000000001,-21.928562789813878
26.90288710594177,-26.302717000000012,-19.92200584804979
26.9036169052124,0.3291109999999833,17.43483365520437
26.9036169052124,17.891680999999977,20.90116959308969
26.917228937149048,19.862607999999994,33.054139387358134
26.917228937149048,13.833889999999997,22.157831128588747
26.933286905288696,8.848602999999997,7.797941907226651
26.933286905288696,18.123554999999985,-1.8031922819737185
26.94793510437012,-2.243940000000009,3.198516552752393
26.94793510437012,-3.919415000000015,2.005637529305326
26.948617935180664,0.5086259999999925,-2.180460917435464
26.948617935180664,8.71770699999999,-17.912158959562895
26.962857007980347,3.2798919999999896,-6.937692806237234
26.962857007980347,-2.5954910000000098,-9.032254523223024
26.963578939437863,0.3552899999999965,-10.081672301318369
26.963578939437863,16.448079999999976,-21.65759849144328
26.97721290588379,2.6628089999999816,-15.461434635338886
26.97721290588379,1.7203539999999862,0.2998265160309543
26.992887020111084,-1.7951520000000016,21.554910819185288
26.992887020111084,13.87128899999999,36.09214736881252
26.9935839176178,6.436367999999987,42.481906623236135
26.9935839176178,3.769818999999984,20.520887336666533
27.00720691680908,11.94149999999999,27.85469622253092
27.00720691680908,16.324662999999987,9.822370057593542
27.039241075515747,9.218852999999996,16.049161939902156
27.039241075515747,3.1826549999999827,8.446803492468668
27.0400230884552,5.422854999999998,14.715847738013528
27.0400230884552,-2.378577000000007,-15.757819916785769
27.040688037872314,9.230072999999976,15.954424823670031
27.040688037872314,4.798290999999978,7.967919475137688
27.041430950164795,5.965139999999991,12.714748030002914
27.041430950164795,2.45711399999999,-9.963483468257806
27.05228900909424,-4.18494800000002,8.297156358929193
27.05228900909424,-2.7563060000000235,2.2425529377819498
27.06721305847168,8.549410999999992,12.921616216988562
27.06721305847168,0.1982139999999788,-11.093002109529325
27.08284091949463,2.7301269999999818,11.816017517770064
27.08284091949463,4.2597459999999785,13.231136661137336
27.08360004425049,-0.0785380000000088,7.655979776447583
27.08360004425049,0.3029319999999984,-11.79021747893722
27.09715509414673,2.019545999999991,7.867997225276987
27.09715509414673,-1.682955000000021,6.663362522811262
27.129327058792114,-4.891789000000017,2.809205000391934
27.129327058792114,-1.3688040000000117,-4.075136356524748
27.129892110824585,0.4300879999999836,3.586525368561734
27.129892110824585,1.3987219999999922,5.391922476207564
27.13066792488098,-7.188088000000022,2.5443890254993637
27.13066792488098,-4.652436000000023,6.214202771969749
27.1314070224762,-11.840523000000005,2.853791590449587
27.1314070224762,-1.439862000000005,14.500553443851668
27.142210960388184,-2.4234550000000183,7.33191416191338
27.142210960388184,-3.369650000000007,2.56937899460702
27.157937049865723,-6.421408000000014,8.456151783695837
27.157937049865723,-12.84281700000001,4.044399417701055
27.158605098724365,-12.519315000000006,6.107374847614956
27.172219038009644,-9.441378000000014,3.3148211612126914
27.172219038009644,-7.354512999999997,8.90601999966037
27.187989950180054,-3.4089189999999974,22.74084513673208
27.187989950180054,-6.378399999999999,12.833821113453798
27.18869090080261,-8.169812000000007,-0.05137461033061
27.18869090080261,3.3303809999999885,10.0217185216577
27.202270984649655,1.0228620000000035,11.585056908294709
27.202270984649655,-1.6100270000000023,8.145363435814584
27.21793293952942,1.490349999999978,2.2951190797069216
27.21793293952942,3.5360749999999825,1.2187866760000547
27.21867799758911,11.143031999999977,11.548581030792931
27.21867799758911,17.467202999999984,9.109052544634988
27.23223090171814,1.4529509999999846,-14.682687793599577
27.23223090171814,9.549833999999976,-4.397510469134106
27.24795699119568,13.80583999999999,7.227025333165253
27.24795699119568,9.29552099999998,-6.855531768632275
27.24857306480408,5.110572999999988,-17.34782878787219
27.24857306480408,12.81476699999999,-8.28133975398461
27.26237392425537,18.368517999999995,1.8517624251795084
27.26237392425537,6.976782999999983,-8.56488948898734
27.27800703048706,-5.866033000000016,-25.30204175458729
27.27800703048706,-2.3019090000000237,-13.773127859122535
27.278698921203613,3.835266999999988,1.4589712551811704
27.278698921203613,7.174997999999988,2.5472336065680707
27.29223108291626,-5.073174000000023,-15.726347672055732
27.29223108291626,4.557067999999987,-2.85415461249254
27.307943105697632,6.232542999999993,3.7599911457921182
27.307943105697632,3.367779999999982,-1.375694531326464
27.30881094932556,-4.553328000000022,-18.17712714094137
27.30881094932556,-2.0251560000000097,-4.259314850331873
27.32222604751587,4.358852999999982,4.809879177840173
27.32222604751587,5.705216999999976,4.788435442835712
27.337995052337646,1.213596999999993,-7.753679529862911
27.337995052337646,-2.466464000000002,-1.774972516198252
27.33868408203125,0.96302399999999,-1.6536331050279791
27.33868408203125,-1.826941000000005,0.0479198268518752
27.352463006973267,-3.618353000000013,-4.717514373087287
27.352463006973267,6.000668999999988,12.25374126944783
27.367918014526367,9.418937999999995,8.285853264999735
27.367918014526367,8.326887,7.409199577467539
27.368561029434204,-3.8240480000000048,-14.243358573826043
27.368561029434204,5.794974999999994,9.463861966276806
27.382232904434204,14.134951999999998,7.9533021917022895
27.382232904434204,5.177890999999988,6.324238872132479
27.41425609588623,-6.763609000000002,-16.17092759759749
27.41425609588623,11.10189299999999,7.979766760647321
27.41512393951416,16.296613999999977,6.985312844159322
27.41512393951416,7.365732999999977,2.500808898225181
27.41593098640442,8.809333999999978,-0.280875384110768
27.41593098640442,9.224462999999986,9.153631871741414
27.416527032852173,19.19877599999998,13.35114319262126
27.416527032852173,4.160637999999977,5.395373279385206
27.427133083343502,9.912604999999983,3.6394750456866793
27.427133083343502,17.149310999999983,16.626337400131604
27.442123889923096,24.673990000000003,17.630436747996008
27.442123889923096,13.162577999999996,9.849615972990971
27.45791602134705,4.766502000000003,-3.418559942698716
27.45791602134705,19.490488,16.263231092732205
27.45863890647888,25.34343199999998,21.319740628197906
27.45863890647888,21.405317,18.36593420622584
27.47221207618713,8.498921999999993,1.2603102221999922
27.47221207618713,25.698722000000004,15.723260498882023
27.48800492286682,25.534167,15.473139397743935
27.48800492286682,25.949296000000004,19.461040111748897
27.488683938980103,15.859045999999978,11.220439258575697
27.488683938980103,15.04748699999999,10.2931581010716
27.502146005630493,21.966301999999985,14.258023347631177
27.502146005630493,26.379383999999988,21.16179062194149
27.518007040023804,11.419783999999993,2.623866015509547
27.518007040023804,20.144971,21.584556929060973
27.518637895584103,29.386263999999983,22.400008564614787
27.518637895584103,19.85325899999998,20.09165679063969
27.53217601776123,8.899091999999996,1.4922172975423766
27.53217601776123,18.38721799999999,15.635154348900627
27.547974109649655,22.912497,12.622707274973704
27.547974109649655,24.299999999999983,22.357112337212342
27.54872488975525,8.951449999999994,-0.6631155708988032
27.54872488975525,16.60702599999999,11.902386308686369
27.56225895881653,22.295413,14.975412059993175
27.56225895881653,23.671696999999995,24.437340317407227
27.57769203186035,5.645378999999991,4.76266932132302
27.57769203186035,25.567826,22.737436098229416
27.59296488761902,28.02867999999998,13.954205746335298
27.59296488761902,16.83141999999998,7.473645999763892
27.593708992004395,21.094904999999983,13.016028162005924
27.593708992004395,24.875944000000004,20.39813988789452
27.607913970947266,29.932289,25.18772355007251
27.607913970947266,19.370812,15.007716407433572
27.6086220741272,8.794375000000002,4.830985598367851
27.6086220741272,15.36537899999999,11.386876028438127
27.62221097946167,32.47168099999999,22.113676497455177
27.62221097946167,30.740106999999995,22.143612347538717
27.63789105415344,16.678083999999984,9.333008353170651
27.63789105415344,12.459475999999997,9.133036328261053
27.638569116592407,27.003946999999982,17.79548547301877
27.638569116592407,23.948448999999982,21.81300231347085
27.65221309661865,13.23363599999999,6.863228159456215
27.65221309661865,20.40676399999998,15.786554085472924
27.667728900909424,25.967995,13.847292726280225
27.667728900909424,20.661076999999977,14.087180317683783
27.683571100234985,7.64996499999998,0.3112088966291102
27.683571100234985,20.81067299999998,16.227049858185907
27.684344053268436,24.745048,14.113188106426325
27.684344053268436,26.050272999999976,27.70205699363405
27.68503499031067,16.371411999999992,11.481416653607807
27.68503499031067,26.974028000000004,26.651382802627083
27.69722294807434,27.381677,14.845680174674982
27.69722294807434,17.773873999999978,18.864194051082
27.71218490600586,13.99657499999998,11.434020186295182
27.71218490600586,25.803439999999995,31.82008804567941
27.727942943573,25.163917,18.608466519452428
27.727942943573,10.858798999999976,18.08408941854163
27.728605031967163,6.427018000000004,8.519521716950068
27.728605031967163,8.82429399999998,13.339053318367352
27.7422559261322,16.25547499999999,8.86258008975708
27.7422559261322,11.935890999999998,19.55346512675895
27.758008003234863,3.412658999999991,3.5093239812159203
27.758008003234863,14.299506999999975,22.24160810132451
27.758708000183105,27.80428599999999,25.355581403224896
27.758708000183105,5.563100999999989,14.976395413428628
27.772253036499023,6.737429999999989,11.064015655169682
27.772253036499023,18.03566699999999,24.113507713832504
27.78789710998535,15.769287999999989,21.92073213927489
27.78789710998535,9.482516000000004,26.143528135307008
27.78870701789856,6.546695,19.357303771392317
27.78870701789856,19.01552099999998,30.40706404464366
27.80223608016968,23.873650999999995,30.81749555480689
27.80223608016968,25.57156599999999,38.794044348998895
27.8180410861969,8.169810999999982,19.30158402585287
27.8180410861969,21.480114999999984,31.18887499428139
27.818623065948486,27.38541699999999,28.099496247578195
27.818623065948486,31.02807999999999,37.97609977084556
27.83222603797913,16.969796000000002,19.014504274284903
27.83222603797913,12.739969000000002,17.022600012182387
27.84788990020752,17.414843999999988,10.820039168301566
27.84788990020752,17.089472999999998,11.634550408837455
27.84859800338745,11.281408,2.4040036608795994
27.84859800338745,14.015275000000004,2.583486970114567
27.862163066864014,24.68894899999998,6.139325197845469
27.862163066864014,16.752882,6.945309379510116
27.877931118011475,4.572026999999991,-1.3938471414543638
27.877931118011475,7.762161999999989,5.161259801717668
27.878588914871216,0.6039940000000001,-10.270895659781242
27.878588914871216,-7.0777610000000095,-10.325528373644705
27.892252922058105,-14.452844000000011,-10.079764395296754
27.892252922058105,-5.693998000000022,2.437254746652352
27.907886028289795,18.660230999999985,25.59758341916379
27.907886028289795,25.092858999999976,40.15214380946424
27.908737897872925,24.93952299999998,36.43716549796096
27.908737897872925,32.632497,32.42572947413317
27.92222905158997,24.763746999999995,13.626280039028348
27.92222905158997,7.272234999999995,-0.125046208628885
27.93793797492981,3.7941280000000006,3.3003143573703766
27.93793797492981,3.367779999999982,-0.0130070952003435
27.938687086105347,9.03746799999999,3.1798902141367016
27.938687086105347,-0.6451330000000155,-1.768769039739205
27.95227599143982,-9.134706000000024,-11.230856870675472
27.95227599143982,1.654905999999983,-6.768934861365173
27.96793508529663,12.212642999999986,-4.981573118988148
27.96793508529663,8.584939999999989,-9.845318048873835
27.96852707862854,2.862892999999985,-18.24253949930768
27.96852707862854,8.027694999999994,-8.023558095293186
27.982204914093018,10.548387999999989,4.09326625567577
27.982204914093018,3.910065000000003,18.91643313070303
27.997890949249268,-3.921285000000012,13.9436266276094
27.997890949249268,2.2495499999999997,15.684462677889751
27.998549938201904,7.526547999999991,9.552255749564988
27.998549938201904,4.5869869999999935,11.557153724361749
28.01219201087952,-10.320254000000006,-2.270560314478661
28.01219201087952,0.4543979999999976,10.160125475024143
28.027873039245605,6.1053859999999815,8.139837279040282
28.027873039245605,-7.335813999999999,2.929449671100823
28.02875804901123,-6.756129000000016,3.88681808258349
28.02875804901123,1.2584760000000017,13.41204826726046
28.042268991470337,13.573966999999982,15.86989179228053
28.042268991470337,0.0355289999999968,9.50808398460056
28.05792999267578,-0.2300040000000081,12.19877241128864
28.05792999267578,4.818860999999998,20.38598263867777
28.058576107025143,6.576613999999978,12.186978904297296
28.058576107025143,5.600499999999983,18.295144675172214
28.07219290733337,-7.84444000000002,7.121215786563836
28.07219290733337,-0.7199310000000025,14.217340119173342
28.08792805671692,5.697736999999989,13.702722090406818
28.08792805671692,2.2719889999999907,16.701967982806018
28.088682889938354,-14.688457000000014,3.687372368088337
28.088682889938354,-6.696291000000002,10.77649619533224
28.10217809677124,-0.3870799999999974,7.451846035999009
28.10217809677124,-6.75239000000002,12.270307065242571
28.11788892745972,-10.735383000000011,12.73786374987288
28.11788892745972,-12.893305000000012,5.312114863366308
28.11867094039917,-4.411212000000006,-0.3372317018600252
28.11867094039917,-8.057614999999998,9.182734629892018
28.148673057556152,-21.300600000000017,2.645503916082788
28.148673057556152,-14.030235000000005,6.407268770006056
28.14936709403992,-4.269096000000019,0.5432280229298847
28.14936709403992,-8.551281000000017,11.585475937615978
28.149996995925903,-20.69099700000001,5.420703481101491
28.149996995925903,-15.241962000000017,9.728925444531953
28.16297507286072,-17.444764000000006,-7.982858586537205
28.16297507286072,-14.542601000000005,12.615048629214895
28.16360712051392,-21.98500200000001,8.835334888609168
28.17733907699585,-8.334367000000015,19.414185125782836
28.17733907699585,-11.617999000000012,1.8444451101518735
28.193886041641235,-13.282255000000006,15.535222043972162
28.193886041641235,-14.703417000000016,15.742629917213272
28.19390296936035,-10.985956000000016,13.864628725787329
28.19390296936035,1.7708419999999876,15.1791533857327
28.20724892616272,-6.849626999999998,17.824460049811883
28.20724892616272,-15.350420000000014,10.926893265915684
28.23942804336548,-4.8674800000000005,13.89897792582168
28.23942804336548,-3.9362450000000138,1.9679747868670665
28.239959001541138,-6.782308999999998,9.087323459857284
28.239959001541138,-0.1103270000000122,17.220276830748745
28.24102807044983,-5.664079000000015,6.895769814341179
28.24102807044983,-1.3856330000000128,4.977184191455932
28.24150395393372,-1.662385999999998,6.930317198146415
28.24150395393372,-4.874960000000016,4.153865854319232
28.25218892097473,-0.6301730000000134,1.760296556892138
28.25218892097473,1.699783999999994,2.1932747233387406
28.267373085021973,-9.041208000000012,-4.914367698137885
28.267373085021973,-10.974737000000005,-2.92747464282769
28.28313708305359,1.0153829999999855,3.989310383580656
28.28313708305359,-1.696044999999998,0.9902893288998468
28.28371500968933,-5.118053000000003,2.324830867499812
28.28371500968933,-5.473343999999997,5.3463840562848
28.297168970108032,-3.2705430000000035,2.083895533399036
28.297168970108032,7.305893999999995,7.740479467111219
28.31291389465332,7.2684950000000015,10.818709895795337
28.31291389465332,1.2397770000000037,8.431894566873233
28.31366991996765,-1.718484000000018,4.69344884826098
28.31366991996765,0.3571599999999932,3.825163401494122
28.32724404335022,-0.6862720000000024,7.492820146666229
28.32724404335022,2.8441939999999875,9.705984376035868
28.342904090881348,1.0453019999999924,4.864675750368855
28.342904090881348,2.904032000000001,1.8730613514780756
28.343694925308228,4.048440999999997,10.521468024895976
28.343694925308228,-4.2092580000000055,0.8325740895647904
28.357197999954224,10.376351999999995,12.545548300829626
28.357197999954224,10.335212999999982,5.857915808734713
28.3729259967804,7.017921999999999,10.923567040811747
28.3729259967804,10.664324999999993,16.276643957703893
28.37358903884888,10.451149999999984,12.050447268972109
28.37358903884888,13.731042000000002,7.844628960934399
28.38720202445984,10.701723999999984,10.292927413752032
28.38720202445984,-0.5441560000000152,0.3957891238700899
28.40296602249145,2.417845,2.6046326315931774
28.40296602249145,13.40193099999999,5.027530445711724
28.403642892837524,4.149418999999995,1.4439756925857763
28.403642892837524,2.013936000000001,0.5922396025846535
28.417200088500977,5.776274999999998,4.523208085187715
28.417200088500977,14.071372999999994,5.459304116533261
28.432992935180664,-0.2935820000000149,1.323938425453881
28.432992935180664,-0.5516350000000045,2.770897633284198
28.43367290496826,4.235435999999993,7.724430412570184
28.43367290496826,7.6424849999999935,-0.0188321524233483
28.447232007980347,7.339552999999995,8.42417727869646
28.447232007980347,5.607979999999998,6.219625301443577
28.46294403076172,5.211549999999988,1.4574716926813576
28.46294403076172,7.522808999999995,-4.039484530971574
28.46361207962036,0.3870789999999999,1.7822738079855367
28.46361207962036,-9.987403,-3.686475760698767
28.47734403610229,-0.1178069999999991,3.0742354604445152
28.47734403610229,2.952651000000003,-4.015295005022746
28.49300503730774,-1.3931129999999996,-1.105763994296174
28.49300503730774,0.2674030000000016,3.433385293586767
28.493632078170776,-2.096214000000004,-5.818053314039366
28.493632078170776,5.492042999999995,-3.228444112649779
28.50724697113037,-1.7596230000000048,-1.2445100356116354
28.50724697113037,-4.328934000000004,1.1884437793762457
28.52295207977295,-0.4543979999999976,-2.2319864499321955
28.52295207977295,0.5404149999999959,-11.500265735235985
28.523700952529907,0.7872490000000028,-2.005777913090995
28.523700952529907,4.822600999999992,6.39491225258817
28.537211894989014,6.075467000000003,3.7468074338418873
28.537211894989014,3.053628000000004,-11.341531521665264
28.55296492576599,3.1845249999999794,1.2163527570756338
28.55296492576599,5.791235,6.7248616346495
28.5537109375,-0.6787920000000156,2.996040079369892
28.5537109375,7.3993919999999775,-3.651238197471368
28.567341089248657,4.942277999999988,1.7048969627058057
28.567341089248657,3.300461999999982,0.9791145498270302
28.583110094070435,-0.555374999999998,-1.3216862576127424
28.583110094070435,1.909218999999979,-12.748855028743408
28.583735942840576,0.6451329999999871,-1.3728582547456316
28.583735942840576,7.088979999999992,5.402204631441014
28.597243070602417,9.654551999999995,11.953960905201011
28.597243070602417,0.1813849999999774,-12.961889648860597
28.61307692527771,4.52714899999998,4.570757461723362
28.61307692527771,13.551526999999991,15.605180561327144
28.61373496055603,4.452350999999993,8.977545806221542
28.61373496055603,8.11371299999999,-4.603944285910803
28.627310037612915,6.045547999999997,4.632925724611447
28.627310037612915,11.139291999999983,7.151634672321745
28.64299511909485,5.907172000000003,3.748473306274596
28.64299511909485,10.06594099999998,-5.585944493337831
28.643585920333862,7.343292999999988,7.9967718699057
28.643585920333862,3.233142999999984,7.411600086614849
28.65735602378845,1.954097999999988,8.496527729289134
28.65735602378845,8.308188000000001,-1.945850718775553
28.67296290397644,7.563946999999985,5.712592612841659
28.67296290397644,7.713542999999987,4.320240619109917
28.67376399040222,0.1926049999999861,-3.4452899531061214
28.67376399040222,-4.710404000000011,-16.97874761229874
28.68726491928101,-6.165225000000021,-7.971086446837878
28.68726491928101,18.106724999999983,17.615248433489363
28.70296311378479,26.46166199999999,23.606163810003537
28.70296311378479,15.372858999999975,4.7170049797729465
28.703656911849976,7.036621999999994,5.818724505323749
28.703656911849976,13.630065000000002,11.229480962206315
28.717264890670776,12.05930699999999,6.063785483697213
28.717264890670776,2.4552439999999933,-9.25101781820084
28.73308897018433,8.577460000000002,7.949452875358585
28.73308897018433,21.027586999999983,18.487099507220982
28.73359203338623,13.046640999999994,7.730761621792358
28.73359203338623,7.410611999999986,-5.954342711522475
28.747246980667114,8.992588999999981,7.701492570111573
28.747246980667114,5.6191989999999805,2.4897667469961653
28.76289010047913,9.145924999999975,8.14760276756181
28.76289010047913,10.473590000000002,3.625350956343036
28.763586044311523,-4.119500000000016,-0.0209231905557718
28.763586044311523,6.232542999999993,1.7623070818563713
28.77729797363281,2.283209,-5.603879807894828
28.77729797363281,-0.6039940000000001,-17.96052411428058
28.793023109436035,-10.776522,-15.273186428874304
28.793023109436035,-2.7357370000000003,-6.287844232055436
28.793663024902344,-1.1911580000000015,-6.18331419189738
28.793663024902344,-19.23617600000001,-27.74966225659653
28.80744194984436,-20.563840000000013,-21.49179719322211
28.80744194984436,-1.093921000000023,-2.48551016282957
28.82305407524109,-5.600500000000011,-9.183861422166352
28.82305407524109,-9.979923000000014,-15.0156408323678
28.824064016342163,-11.143032000000003,-9.677483808426071
28.824064016342163,-0.996684000000016,-3.1253006415450866
28.837332010269165,-9.736829999999998,-19.148831064851464
28.837332010269165,-17.74395600000001,-29.949619134134306
28.85290598869324,-14.33690700000001,-20.347951149718117
28.85290598869324,2.6123199999999827,1.4163814785771658
28.853722095489506,-13.925518000000013,-12.129000705046076
28.853722095489506,-26.88801100000001,-25.518086343155204
28.867357969284058,-31.226295000000007,-25.48730863519668
28.867357969284058,-36.88102400000001,-32.90046955474855
28.882890939712524,-38.91178900000001,-33.29599042655497
28.882890939712524,-46.08865700000001,-44.89070754011948
28.88365793228149,-15.836607000000017,-5.381316180993748
28.88365793228149,14.662277999999986,24.826006977434552
28.897264003753666,11.341245999999984,15.05471068925448
28.897264003753666,-1.3257949999999994,-11.306203143140694
28.913055896759037,-3.805348000000009,-7.129840760535827
28.913055896759037,1.3145749999999907,-0.0541328189101291
28.91372799873352,-12.212644000000012,-4.244841205695503
28.91372799873352,-19.22495600000001,-14.93415131875602
28.94244408607483,-22.961116000000004,-12.693095775746826
28.94244408607483,-8.857953000000009,-8.451314735266262
28.94631505012512,-14.157391000000004,-13.626728946710884
28.94631505012512,-19.056660000000008,-26.161272931085072
28.94637107849121,-13.487949000000016,-14.9438561366677
28.94637107849121,-2.1036940000000186,-11.54970425771377
28.957345008850098,-5.140493000000021,-8.023459221359209
28.957345008850098,-14.381785000000008,-15.32877533416179
28.97290802001953,-3.1695650000000057,13.974315609843623
28.97290802001953,1.7446630000000027,16.304994691385954
28.97362899780273,0.8770059999999944,21.31169950080898
28.97362899780273,-5.428465000000017,1.7071253326629172
28.98734998703003,-2.4178459999999973,9.932128376538277
28.98734998703003,4.306494999999984,7.189934742315477
29.00289797782898,7.066541000000001,14.478825451576183
29.00289797782898,-6.236283000000015,-6.098635271349235
29.0037579536438,-15.679531000000011,-5.093180387895869
29.0037579536438,3.936243999999988,8.787773955931783
29.01723599433899,0.4244779999999934,3.463648688376584
29.01723599433899,-6.273682000000008,-9.701163603955042
29.0329909324646,-9.325441000000012,-6.162682992752485
29.0329909324646,0.1365059999999971,2.284335777378133
29.03378701210022,2.3916659999999865,9.480260751031569
29.03378701210022,-6.92068500000002,-5.460289284638798
29.047240018844604,-8.846733999999998,-1.6193899817918638
29.047240018844604,-4.250397000000021,-0.1367690337641756
29.063043117523197,-7.406872000000021,-2.4018412369521567
29.063043117523197,-7.466710000000006,-3.034629055718261
29.06366801261902,-6.019369000000012,0.7759709620677446
29.06366801261902,-1.1051410000000033,2.715542918802812
29.07737898826599,-7.3769530000000145,-2.258257599174547
29.07737898826599,-16.356453000000016,-7.919120377886285
29.09307289123535,-23.54454000000001,-12.737293462170578
29.09307289123535,-12.78484800000001,-1.635217776140859
29.093761920928955,-17.714036000000007,-10.306979037559838
29.093761920928955,-20.05895400000001,-13.552217361057632
29.10730004310608,-16.558407000000017,-8.265769784298373
29.10730004310608,-6.640193000000011,3.653395640867682
29.12308096885681,-15.556114000000008,-3.4529466059291245
29.12308096885681,-23.050874000000007,-10.76853377272308
29.12372589111328,-12.302401000000003,4.715543874000687
29.12372589111328,-7.590127000000024,6.079104234456128
29.13723397254944,-19.333413000000007,-4.017065758846911
29.13723397254944,-20.03651400000001,-7.746056393568422
29.15296697616577,-14.796914000000015,0.5538415158745913
29.15296697616577,-7.799562000000009,3.974095941801611
29.15376305580139,-17.889812000000006,-4.1037629734718575
29.15376305580139,-16.128319000000005,-3.703527305498328
29.167989015579224,-16.19189700000001,5.561805554297834
29.167989015579224,-0.439438000000024,17.243325144565045
29.168687105178837,-16.105879000000016,1.9366219673309253
29.182236909866333,-14.284548000000015,-2.7428414731122324
29.182236909866333,-13.682424000000012,-0.2798082223558022
29.198188066482544,-3.457538,4.656025543575266
29.198188066482544,-0.3609010000000126,8.839637693764134
29.19880604743957,-6.774829000000011,-4.387097916794868
29.19880604743957,2.825493999999992,8.510308799559033
29.21240496635437,5.937090999999981,9.47926805049232
29.21240496635437,7.421830999999997,11.966091638978083
29.22795391082764,0.7348899999999787,2.338067191069851
29.22795391082764,-2.215890999999999,-0.3537860059600435
29.228682041168213,10.660584999999998,10.206187523604711
29.228682041168213,10.63814499999998,9.203864463833195
29.25861406326294,0.8695269999999766,-6.61113808598969
29.25861406326294,5.297567999999984,2.784203284346506
29.259336948394772,18.30867999999998,13.781814152537043
29.259336948394772,16.734182000000004,14.524077155383353
29.260045051574707,3.5024159999999824,3.379132445975072
29.260045051574707,-5.1666720000000055,-1.7861440110571594
29.27226996421814,4.403731999999991,2.996911584968549
29.27226996421814,3.401438999999982,3.4637868826437166
29.28799104690552,-0.3384610000000236,-5.061905844299291
29.28799104690552,8.90283199999999,10.684603104569756
29.288657903671265,9.557313999999993,7.538668537401587
29.288657903671265,7.118898999999999,9.086988750316989
29.302248001098636,8.865432999999996,5.602502506983648
29.302248001098636,4.590726999999987,6.531072858228367
29.317898988723755,15.006348000000004,10.319589463730276
29.317898988723755,9.755528999999996,12.432713809277155
29.31862592697144,6.299860999999993,2.841196310287689
29.31862592697144,4.605686999999989,6.290281378942109
29.332387924194336,7.900537999999983,5.004801149430096
29.332387924194336,10.611965999999995,12.36419365778356
29.347959995269772,-0.9630240000000184,0.5862130245271842
29.347959995269772,-3.307941999999997,3.1285767984541835
29.34864592552185,4.029741999999999,1.9343860071339696
29.34864592552185,2.14483199999998,2.270359670956531
29.36221408843994,3.378998999999993,0.4824774424365388
29.36221408843994,-2.702078,1.6277742125762442
29.37800407409668,7.836959999999976,5.96591315041541
29.37800407409668,10.320253999999975,14.712319934722933
29.37863302230835,-3.655752000000007,-2.1719725052171466
29.37863302230835,4.441130999999984,8.696791169768261
29.39223408699036,15.036267999999978,13.137091990343512
29.39223408699036,7.724762999999996,6.582089035493018
29.40789604187012,10.350172999999984,9.457584243807522
29.40789604187012,14.340645999999992,16.234412237059253
29.40857696533203,15.08114599999999,14.467623990666018
29.40857696533203,9.785448000000002,11.578912940306347
29.42221689224243,7.062800999999979,9.70062979465399
29.42221689224243,17.115651999999983,23.497436710755125
29.43795895576477,12.440776999999995,14.7000396719833
29.43795895576477,10.855058999999985,11.76044395448707
29.438594102859497,10.626925999999996,9.861560609444092
29.438594102859497,7.504109,9.347220916564138
29.452204942703247,22.22061499999998,18.922615083662688
29.452204942703247,14.336906,11.662772194485424
29.46792888641357,8.704616999999985,10.492440687805033
29.46792888641357,5.952050999999983,9.925421871926485
29.46864891052246,15.971242999999989,16.140999908329757
29.46864891052246,10.697983999999993,9.82986990227309
29.4822781085968,-6.090427000000005,-6.07760906947053
29.4822781085968,3.8277870000000007,4.043411025715843
29.497968912124637,8.177290999999997,2.300795799045943
29.497968912124637,7.526547999999991,5.691204104161698
29.49864101409912,-3.745509999999996,-5.596970537292748
29.49864101409912,3.139645999999999,5.899316355286633
29.512269020080566,-1.3257949999999994,-0.6689827253499766
29.512269020080566,-7.6761450000000195,-3.513579140693208
29.52795696258545,-4.504710000000017,-3.379657476101899
29.52795696258545,-10.997175999999996,-9.81818945844945
29.528733015060425,1.6698649999999873,-3.5331375077783065
29.528733015060425,-10.903679000000013,-11.540074324070682
29.54230809211731,-15.98246300000001,-17.720816924168084
29.54230809211731,-7.881839000000014,-4.977892928342896
29.55803894996643,-0.3496810000000039,-2.18643763584075
29.55803894996643,-5.948311000000018,-2.539391436047951
29.558680057525635,-5.024556000000018,-4.107219899882822
29.558680057525635,-9.37032000000002,-3.2641072787288987
29.57229995727539,-4.807642000000016,-9.701471535219651
29.57229995727539,-14.838053000000016,-16.680733093732204
29.58823299407959,-2.776876000000016,-3.8320602221636566
29.58823299407959,-4.108280000000008,-2.969784220572996
29.5889151096344,1.5202689999999848,-1.9534279523993665
29.5889151096344,7.328333999999984,8.832918322822445
29.602410078048703,-9.332921,-4.855603043858211
29.602410078048703,-6.587834000000015,-2.128446849917667
29.6181960105896,6.599052999999998,3.3294750141011487
29.6181960105896,-3.887626000000012,-3.914023646097208
29.61888694763184,-14.415445000000004,-12.641410989098844
29.61888694763184,-8.476483000000002,-6.814228816242426
29.63244605064392,0.4693570000000022,-3.5570632458277123
29.63244605064392,-10.892459000000002,-10.684135026195504
29.648005962371823,-10.58578700000001,-8.401092717357448
29.648005962371823,-17.508342000000013,-14.709114919207524
29.648684978485107,-7.088981000000018,-5.839339493755208
29.648684978485107,-9.071128000000016,-2.3825428946984406
29.662374019622803,-19.26983500000001,-15.84254455700609
29.662374019622803,-23.68665700000001,-18.862935825380934
29.67797589302063,-10.51846900000001,-9.684169865308837
29.67797589302063,-6.655152000000015,-2.2546866458916828
29.67865490913391,-13.349573000000008,-8.35104127446155
29.67865490913391,-12.250043000000003,-1.4169154206628534
29.692214012146,-18.45079700000001,-10.82907298349708
29.692214012146,-21.98126200000001,-9.343552650662982
29.707693099975582,-33.174783000000005,-21.076895287386503
29.707693099975582,-33.522593000000015,-21.04462623748978
29.723647117614743,-13.147618000000008,-2.1383412519351985
29.723647117614743,-20.130012000000008,-6.108436271382198
29.72429299354553,-28.709342000000007,-15.253783958097909
29.72429299354553,-33.133644000000004,-17.034878751874622
29.725133895874023,-27.20590200000001,-13.241951299417858
29.725133895874023,-14.886672000000004,6.228329068792071
29.73728489875793,-31.959315000000004,-10.215600657808825
29.73728489875793,-25.504248000000004,-3.50107796843605
29.75227689743042,-21.42775700000001,-1.5071994799151724
29.75227689743042,-31.86207800000001,-9.605903385683082
29.767966985702515,-36.215321,-11.90318528339131
29.767966985702515,-23.439823000000004,0.4843379676661961
29.7686550617218,-12.36597900000001,8.49491361202536
29.7686550617218,-20.073913000000005,1.3701013235381725
29.7823429107666,-35.441162000000006,-14.530656144376508
29.7823429107666,-27.493875000000017,-9.128689689979064
29.814361095428467,-20.01033500000001,-1.4877797821589986
29.814361095428467,-20.61619900000001,-4.056979086948783
29.815102100372314,-26.327026000000004,-6.4854844944806125
29.815102100372314,-25.990435000000005,-5.597966781315815
29.8157970905304,-25.908157000000017,-7.346875935666958
29.8157970905304,-27.57989200000001,-11.296921263698014
29.816566944122314,-26.07645300000001,-12.172899420451266
29.816566944122314,-27.882824000000014,-11.78947698878248
29.827245950698853,-14.378046000000012,-0.8768847711296743
29.827245950698853,-13.18875700000001,3.150576365581461
29.84226107597351,-18.11420600000001,0.9072149677899796
29.84226107597351,-28.29047300000001,-6.299509440110263
29.85806488990784,-33.41787600000001,-11.291563971568657
29.85806488990784,-41.39882300000001,-13.598904450915672
29.85873508453369,-58.62106200000001,-26.58855979804426
29.85873508453369,-57.09892300000001,-27.208144568289683
29.87235999107361,-31.286133000000007,-7.509496580627179
29.87235999107361,-25.694983000000008,12.764420684080108
29.887753009796143,-19.168857000000017,24.47229639484847
29.887753009796143,-7.081501000000003,28.55819632041037
29.903731107711792,-3.4276190000000213,7.936368033817665
29.903731107711792,-1.1051410000000033,5.818203186477064
29.90448498725891,-15.376599000000011,-8.795122793009615
29.90448498725891,-13.446810000000012,2.179465329468794
29.905122995376587,-6.269942000000015,11.993728586543732
29.905122995376587,-18.42461700000001,-0.2505760604900118
29.917246103286743,-21.73068900000001,-3.886732114787641
29.917246103286743,-17.968350000000015,6.151499546385146
29.93225598335266,-8.540062000000006,14.720400496837872
29.93225598335266,-7.792082000000022,6.793677257896992
29.94793200492859,-19.684964000000008,-15.039233557659006
29.94793200492859,-19.729842000000005,-9.479423459404062
29.948657989501957,-8.431605000000019,5.3251638580041085
29.948657989501957,-4.373813000000013,16.51248687975771
29.962224006652832,-12.182724000000007,18.13993619715636
29.962224006652832,-13.992836000000011,16.806164056733028
29.97794890403748,-6.98800300000002,17.24327565149666
29.97794890403748,-10.683024000000016,11.704911995031562
29.978585958480835,-16.00864200000001,8.010160946832983
29.978585958480835,-12.983063000000016,5.169699705474478
29.99225807189941,-4.388773000000015,4.895891978484372
29.99225807189941,-8.237130000000008,6.405753261839461
